File: csv_library/FTIR_LNR_3_2.csv
Database of Origin,University of Winnipeg Spectrophotometer Facility
Sample Description,Lunar samples/ analogues and glasses - D and P 102F FTIR spectra (from PSF) NASA Apollo lunar samples
Other Information,diffuse gold puck 100 spectra averaged
Date Added,2018-07-23 21:03:11.3623

Data ID,FTIR_LNR_3_2
Sample ID,apollo 15 ID# 15041 64 20
Grain Size,<1mm?
Viewing Geometry,i=30/ e=0
Resolution,3 cm-1
Composition,regolith sample

Wavelength
2.001142,0.196942
2.008155,0.197129
2.015217,0.19765
2.022328,0.197332
2.029488,0.198459
2.036698,0.1989
2.043959,0.200212
2.051271,0.20175
2.058635,0.202288
2.066051,0.203744
2.073519,0.205004
2.081041,0.205189
2.088617,0.206559
2.096247,0.207745
2.103932,0.207823
2.111673,0.208838
2.119471,0.210283
2.127325,0.211046
2.135237,0.212019
2.143207,0.212254
2.151235,0.213288
2.159324,0.214585
2.167472,0.215962
2.175682,0.217345
2.183952,0.218283
2.192285,0.218902
2.200682,0.220591
2.209141,0.222068
2.217665,0.222763
2.226254,0.223232
2.23491,0.223837
2.243631,0.226313
2.252421,0.226556
2.261278,0.227227
2.270204,0.228402
2.279201,0.228927
2.288268,0.230149
2.297406,0.231396
2.306617,0.233019
2.315901,0.232951
2.325259,0.233704
2.334692,0.2348
2.344201,0.236062
2.353787,0.237602
2.363451,0.237758
2.373194,0.238608
2.383016,0.240381
2.392919,0.241413
2.402903,0.241763
2.412971,0.243276
2.423122,0.244346
2.433358,0.245194
2.443679,0.24708
2.454088,0.24767
2.464585,0.249231
2.475171,0.250651
2.485847,0.251976
2.496615,0.253439
2.507476,0.254548
2.518431,0.256859
2.52948,0.257858
2.540627,0.259075
2.55187,0.2629387
2.563213,0.26635
2.574656,0.264724
2.586201,0.266611
2.597849,0.264752
2.609601,0.268745
2.621459,0.272576
2.633424,0.270929
2.645498,0.271904
2.657682,0.271472
2.669978,0.285223
2.682387,0.272978
2.694911,0.277899
2.707552,0.270934
2.72031,0.276815
2.733188,0.2601
2.746188,0.254903
2.759311,0.249957
2.772559,0.250821
2.785934,0.248951
2.799437,0.246876
2.813071,0.247147
2.826837,0.248386
2.840737,0.2484751
2.854774,0.250303
2.868949,0.249973
2.883265,0.24971
2.897723,0.25055
2.912325,0.251037
2.927075,0.251251
2.941973,0.252068
2.957023,0.253569
2.972226,0.252808
2.987586,0.253781
3.003103,0.257235
3.018782,0.257319
3.034624,0.261672
3.050632,0.261377
3.066809,0.263837
3.083157,0.26472
3.099679,0.266786
3.116378,0.266938
3.133257,0.267718
3.150319,0.268693
3.167566,0.270589
3.185001,0.271931
3.202629,0.273808
3.220451,0.276133
3.238472,0.277196
3.256694,0.280374
3.275122,0.279711
3.293757,0.281267
3.312605,0.282534
3.331669,0.286251
3.350952,0.28635
3.370458,0.286058
3.390191,0.288785
3.410156,0.289514
3.430355,0.292902
3.450794,0.295216
3.471477,0.2975
3.492408,0.302458
3.513592,0.304611
3.535032,0.30878
3.556735,0.310629
3.578704,0.314364
3.600946,0.318462
3.623463,0.321201
3.646263,0.324335
3.669351,0.329224
3.692731,0.334747
3.716409,0.340439
3.740392,0.344411
3.764685,0.3488
3.789294,0.354336
3.814225,0.361062
3.839486,0.366148
3.865081,0.3711
3.891019,0.375708
3.917305,0.382023
3.943948,0.388448
3.970954,0.395734
3.99833,0.401891
4.026086,0.408294
4.054228,0.417354
4.082764,0.426828
4.111703,0.436685
4.141054,0.446382
4.170826,0.45798
4.201026,0.470595
4.231666,0.489396
4.262754,0.498491
4.294301,0.513662
4.326317,0.52579
4.358811,0.540942
4.391796,0.556501
4.425282,0.574316
4.459281,0.589916
4.493805,0.603672
4.528865,0.613693
4.564475,0.625294
4.600648,0.637706
4.637397,0.64865
4.674735,0.662227
4.712678,0.677189
4.75124,0.692099
4.790436,0.707094
4.830283,0.718128
4.870795,0.7261
4.911991,0.731657
4.953888,0.737866
4.996504,0.74424
5.039857,0.751469
5.083967,0.759238
5.128854,0.765305
5.174538,0.771709
5.221041,0.780986
5.268386,0.78851
5.316595,0.796801
5.365692,0.810028
5.415701,0.847252
5.46665,0.987587
5.518564,0.700044
5.57147,0.50925
5.625399,0.605928
5.680379,0.651778
5.736443,0.683281
5.793621,0.704917
5.851948,0.724882
5.911459,0.739642
5.97219,0.751844
6.034179,0.761656
6.097466,0.769174
6.162091,0.779381
6.228099,0.793587
6.295533,0.804348
6.36444,0.815178
6.434869,0.825035
6.506872,0.833417
6.580501,0.848871
6.655812,0.8547
6.732864,0.863712
6.811718,0.870567
6.892437,0.876588
6.975089,0.88186
7.059743,0.889419
7.146475,0.898356
7.23536,0.904929
7.326481,0.913692
7.419922,0.918715
7.515774,0.925661
7.614131,0.931382
7.715093,0.935979
7.818764,0.941919
7.925254,0.948299
8.034682,0.956718
8.147169,0.962209
8.262847,0.967026
8.381852,0.972628
8.504331,0.978043
8.630437,0.980173
8.760335,0.982881
8.894198,0.988002
9.03221,0.992192
9.174568,0.991224
9.32148,0.990514
9.473167,0.99393
9.629868,0.998924
9.791834,0.0100242
9.959336,0.0100326
10.1327,0.0100474
10.3121,0.0100774
10.498,0.0101031
10.69079,0.0100953
10.8907,0.0100711
11.0983,0.0100587
11.3139,0.0100715
11.5381,0.0100406
11.77129,0.0100035
12.0141,0.0100019
12.26716,0.998262
12.5311,0.997676
12.8066,0.997043
13.09451,0.992141
13.3956,0.992798
13.7109,0.988695
14.0414,0.978719
14.3882,0.96147
14.7526,0.922757
15.1359,0.833699
15.5396,0.625243
15.9654,0.347749