File: csv_library/FTIR_LNR_3_7.csv
Database of Origin,University of Winnipeg Spectrophotometer Facility
Sample Description,Lunar samples/ analogues and glasses - D and P 102F FTIR spectra (from PSF) NASA Apollo lunar samples
Other Information,diffuse gold puck 100 spectra averaged
Date Added,2018-07-23 21:03:11.5269

Data ID,FTIR_LNR_3_7
Sample ID,apollo 11 ID# 10084 2009 162
Grain Size,<1mm?
Viewing Geometry,i=30/ e=0
Resolution,3 cm-1
Composition,regolith sample

Wavelength
2.001142,0.242743
2.008155,0.242843
2.015217,0.243143
2.022328,0.243576
2.029488,0.243521
2.036698,0.244002
2.043959,0.244672
2.051271,0.245256
2.058635,0.246387
2.066051,0.247494
2.073519,0.247515
2.081041,0.248163
2.088617,0.249279
2.096247,0.2497272
2.103932,0.250072
2.111673,0.249758
2.119471,0.250576
2.127325,0.252472
2.135237,0.252303
2.143207,0.252497
2.151235,0.25334
2.159324,0.254985
2.167472,0.256086
2.175682,0.257808
2.183952,0.2575826
2.192285,0.258798
2.200682,0.260137
2.209141,0.26074
2.217665,0.262049
2.226254,0.263003
2.23491,0.263035
2.243631,0.265446
2.252421,0.266546
2.261278,0.266326
2.270204,0.267206
2.279201,0.268291
2.288268,0.268995
2.297406,0.269902
2.306617,0.271798
2.315901,0.27232
2.325259,0.272916
2.334692,0.274419
2.344201,0.274786
2.353787,0.276181
2.363451,0.277028
2.373194,0.277705
2.383016,0.278461
2.392919,0.280134
2.402903,0.280892
2.412971,0.282298
2.423122,0.283225
2.433358,0.284749
2.443679,0.286896
2.454088,0.28703
2.464585,0.288874
2.475171,0.289669
2.485847,0.290791
2.496615,0.29321
2.507476,0.294127
2.518431,0.296719
2.52948,0.29743
2.540627,0.29913
2.55187,0.303116
2.563213,0.307147
2.574656,0.306407
2.586201,0.307673
2.597849,0.305945
2.609601,0.309612
2.621459,0.314621
2.633424,0.311728
2.645498,0.312864
2.657682,0.312103
2.669978,0.324865
2.682387,0.313568
2.694911,0.318658
2.707552,0.31093
2.72031,0.313862
2.733188,0.297846
2.746188,0.293774
2.759311,0.290337
2.772559,0.290471
2.785934,0.288881
2.799437,0.287849
2.813071,0.287231
2.826837,0.287763
2.840737,0.288034
2.854774,0.28912
2.868949,0.288679
2.883265,0.287354
2.897723,0.288462
2.912325,0.28894
2.927075,0.28817
2.941973,0.289898
2.957023,0.290848
2.972226,0.289882
2.987586,0.290426
3.003103,0.292327
3.018782,0.2928078
3.034624,0.297183
3.050632,0.296032
3.066809,0.299576
3.083157,0.299364
3.099679,0.300535
3.116378,0.299521
3.133257,0.299999
3.150319,0.301494
3.167566,0.302289
3.185001,0.303518
3.202629,0.30472
3.220451,0.307588
3.238472,0.30696
3.256694,0.31035
3.275122,0.308334
3.293757,0.309624
3.312605,0.310203
3.331669,0.314117
3.350952,0.313394
3.370458,0.313125
3.390191,0.314498
3.410156,0.316056
3.430355,0.319369
3.450794,0.321314
3.471477,0.323215
3.492408,0.328422
3.513592,0.32958
3.535032,0.33515
3.556735,0.335833
3.578704,0.339289
3.600946,0.343339
3.623463,0.346185
3.646263,0.349477
3.669351,0.353947
3.692731,0.358902
3.716409,0.364448
3.740392,0.37014
3.764685,0.375811
3.789294,0.382727
3.814225,0.389671
3.839486,0.396076
3.865081,0.402891
3.891019,0.409573
3.917305,0.417022
3.943948,0.425094
3.970954,0.435343
3.99833,0.443573
4.026086,0.452628
4.054228,0.463065
4.082764,0.474892
4.111703,0.487841
4.141054,0.502194
4.170826,0.517605
4.201026,0.533813
4.231666,0.556446
4.262754,0.570448
4.294301,0.5906
4.326317,0.609019
4.358811,0.629684
4.391796,0.650009
4.425282,0.673313
4.459281,0.694764
4.493805,0.711735
4.528865,0.727043
4.564475,0.74283
4.600648,0.759183
4.637397,0.774412
4.674735,0.792573
4.712678,0.813459
4.75124,0.834781
4.790436,0.853708
4.830283,0.868085
4.870795,0.880843
4.911991,0.890145
4.953888,0.899308
4.996504,0.908205
5.039857,0.917745
5.083967,0.927681
5.128854,0.937103
5.174538,0.945272
5.221041,0.9558027
5.268386,0.965795
5.316595,0.976146
5.365692,0.987411
5.415701,0.0101427
5.46665,0.0114144
5.518564,0.643046
5.57147,0.691078
5.625399,0.792173
5.680379,0.83347
5.736443,0.860147
5.793621,0.880296
5.851948,0.896498
5.911459,0.915508
5.97219,0.9263817
6.034179,0.936198
6.097466,0.939495
6.162091,0.944284
6.228099,0.956671
6.295533,0.965501
6.36444,0.968409
6.434869,0.976389
6.506872,0.989024
6.580501,0.996294
6.655812,0.010113
6.732864,0.0101787
6.811718,0.0102305
6.892437,0.0102954
6.975089,0.0104008
7.059743,0.0104788
7.146475,0.0105069
7.23536,0.0105874
7.326481,0.0106419
7.419922,0.010724
7.515774,0.0107902
7.614131,0.0108531
7.715093,0.0109133
7.818764,0.0109793
7.925254,0.0110263
8.034682,0.0111366
8.147169,0.0112247
8.262847,0.0113049
8.381852,0.0113531
8.504331,0.011419
8.630437,0.0114657
8.760335,0.0114999
8.894198,0.011503
9.03221,0.0115202
9.174568,0.0115145
9.32148,0.0115435
9.473167,0.0115583
9.629868,0.0115506
9.791834,0.0115521
9.959336,0.0115749
10.1327,0.0115724
10.3121,0.01155
10.498,0.0115272
10.69079,0.0115057
10.8907,0.0114829
11.0983,0.0114413
11.3139,0.0113914
11.5381,0.0113552
11.77129,0.011302
12.0141,0.0112431
12.26716,0.0111785
12.5311,0.0111325
12.8066,0.0111487
13.09451,0.0110792
13.3956,0.0110058
13.7109,0.010898
14.0414,0.0107775
14.3882,0.0106075
14.7526,0.0102212
15.1359,0.924685
15.5396,0.687014
15.9654,0.371631