File: csv_library/FTIR_PYX_04.csv
Database of Origin,University of Winnipeg Spectrophotometer Facility
Sample Description,"HOSERLab master pyroxenes, FTIR data"
Date Added,2016-12-14 03:34:49.6086

Data ID,FTIR_PYX_04
Sample ID,PYX023
Mineral Name,Orthopyroxene
Grain Size,45-90 um
Viewing Geometry,"i=30, e=0"
Material Class,Inosilicate

Wavelength
2000.56,0.335758
2006.983,0.340025
2013.447,0.344012
2019.952,0.348552
2026.499,0.352683
2033.087,0.357372
2039.718,0.362627
2046.391,0.366677
2053.107,0.371668
2059.867,0.376512
2066.671,0.380561
2073.519,0.3861408
2080.412,0.390555
2087.35,0.395247
2094.334,0.40036
2101.364,0.405824
2108.441,0.411515
2115.565,0.415864
2122.736,0.421276
2129.956,0.425593
2137.224,0.43198
2144.541,0.437997
2151.907,0.442398
2159.324,0.447665
2166.791,0.452226
2174.309,0.456696
2181.879,0.460801
2189.501,0.465683
2197.175,0.469749
2204.903,0.473725
2212.685,0.477286
2220.521,0.479108
2228.412,0.480138
2236.359,0.4786
2244.361,0.478479
2252.421,0.47954
2260.537,0.478652
2268.712,0.473674
2276.945,0.471691
2285.237,0.467315
2293.59,0.460338
2302.002,0.457098
2310.476,0.4477676
2319.012,0.442186
2327.61,0.450047
2336.272,0.458965
2344.997,0.474038
2353.787,0.484061
2362.643,0.4882043
2371.564,0.4843237
2380.553,0.477395
2389.609,0.477751
2398.733,0.482037
2407.926,0.485368
2417.19,0.483969
2426.524,0.481838
2435.93,0.480562
2445.408,0.480998
2454.959,0.481564
2464.585,0.481201
2474.285,0.478784
2484.062,0.477129
2493.915,0.473074
2503.845,0.47044
2513.855,0.4709994
2523.944,0.473715
2534.113,0.476009
2544.364,0.477277
2554.697,0.476012
2565.113,0.476735
2575.615,0.47972
2586.201,0.481728
2596.874,0.483184
2607.635,0.48341
2618.485,0.485205
2629.424,0.4845429
2640.454,0.476775
2651.576,0.469322
2662.792,0.457643
2674.102,0.417972
2685.507,0.316844
2697.01,0.175863
2708.61,0.1315008
2720.31,0.128294
2732.111,0.107298
2744.013,0.09921582
2756.019,0.09967754
2768.129,0.09990843
2780.345,0.1016903
2792.669,0.105057
2805.102,0.107405
2817.645,0.1098422
2830.299,0.112225
2843.067,0.112108
2855.95,0.113776
2868.949,0.1151024
2882.066,0.115911
2895.303,0.115286
2908.661,0.115241
2922.142,0.116492
2935.747,0.116782
2949.479,0.120594
2963.339,0.121442
2977.328,0.126075
2991.45,0.1275675
3005.705,0.129948
3020.096,0.132747
3034.624,0.138161
3049.292,0.1393221
3064.101,0.142969
3079.054,0.144579
3094.153,0.146946
3109.399,0.149116
3124.795,0.152612
3140.344,0.156486
3156.047,0.160696
3171.907,0.165437
3187.926,0.170212
3204.106,0.175052
3220.451,0.181391
3236.963,0.184099
3253.643,0.190415
3270.495,0.192722
3287.522,0.196193
3304.726,0.2003906
3322.11,0.204299
3339.676,0.207201
3357.429,0.211051
3375.37,0.213715
3393.502,0.216626
3411.83,0.219264
3430.355,0.223196
3449.082,0.229438
3468.013,0.23245
3487.152,0.236001
3506.502,0.238706
3526.067,0.244608
3545.851,0.248861
3565.856,0.252803
3586.088,0.25664
3606.549,0.258821
3627.244,0.262341
3648.176,0.266604
3669.351,0.269663
3690.771,0.2733585
3712.442,0.277421
3734.368,0.281803
3756.553,0.286663
3779.001,0.290159
3801.719,0.294599
3824.71,0.299516
3847.98,0.304473
3871.533,0.30975
3895.375,0.3149545
3919.512,0.320298
3943.948,0.325579
3968.689,0.332554
3993.742,0.337963
4019.111,0.343385
4044.804,0.348662
4070.825,0.354775
4097.183,0.362536
4123.882,0.370923
4150.931,0.379661
4178.335,0.388961
4206.102,0.415407
4234.24,0.479385
4262.754,0.462192
4291.655,0.488916
4320.948,0.481526
4350.642,0.4777
4380.746,0.488846
4411.268,0.506404
4442.217,0.52225
4473.602,0.534113
4505.431,0.544089
4537.716,0.551152
4570.465,0.5583926
4603.688,0.566062
4637.397,0.571829
4671.601,0.582971
4706.312,0.596208
4741.541,0.607882
4777.299,0.619184
4813.6,0.629519
4850.455,0.63903
4887.876,0.649734
4925.878,0.661489
4964.474,0.673467
5003.678,0.68167
5043.504,0.689217
5083.967,0.699564
5125.083,0.706771
5166.868,0.719054
5209.338,0.740332
5252.51,0.746317
5296.401,0.7612705
5341.031,0.773219
5386.417,0.777776
5432.579,0.7941497
5479.537,0.820942
5527.312,0.869508
5575.925,0.602572
5625.399,0.745663
5675.757,0.775099
5727.022,0.795328
5779.22,0.814554
5832.376,0.834557
5886.517,0.857399
5941.67,0.860916
5997.864,0.858831
6055.129,0.876116
6113.495,0.881042
6172.996,0.88295
6233.663,0.8836335
6295.533,0.888379
6358.64,0.901949
6423.023,0.9126496
6488.721,0.922065
6555.774,0.922973
6624.224,0.933256
6694.117,0.929259
6765.497,0.935033
6838.413,0.938539
6912.916,0.939122
6989.057,0.944411
7066.891,0.9490495
7146.475,0.955936
7227.869,0.957649
7311.135,0.962217
7396.34,0.96638
7483.55,0.971165
7572.838,0.974243
7664.28,0.9753207
7757.953,0.978282
7853.942,0.982807
7952.331,0.987116
8053.214,0.991436
8156.686,0.994296
8262.847,0.997387
8371.804,0.010011
8483.67,0.0100353
8598.562,0.0100503
8716.604,0.0100647
8837.928,0.0100887
8962.673,0.01011819
9090.986,0.0101124
9223.022,0.0100862
9358.945,0.0100783
9498.929,0.0100951
9643.16,0.0101173
9791.834,0.01012
9945.159,0.0101167
10103.357,0.0101254
10266.663,0.0101507
10435.331,0.0101659
10609.627,0.01017
10789.839,0.010166
10976.272,0.0101746
11169.256,0.0101783
11369.141,0.0101572
11576.304,0.0101313
11791.15,0.0101297
12014.114,0.0101476
12245.667,0.0101488
12486.313,0.0101318
12736.599,0.0101203
12997.116,0.0101289
13268.505,0.0101466
13551.461,0.0101426
13846.739,0.0101017
14155.163,0.0100808
14477.629,0.0100369
14815.121,0.99658
15168.712,0.975569
15539.583,0.899475
15929.033,0.743967
15965.407,0.72263