File: csv_library/FTIR_CARB_39_10.csv
Database of Origin,University of Winnipeg Spectrophotometer Facility
Sample Description,Carbonates and Oxolates -  D&P Spectra Reflectance spectra
Other Information,in air reference no window
Date Added,2018-08-06 21:11:30.5754

Data ID,FTIR_CARB_39_10
Sample ID,CRB215
Mineral Name,Hydromagnesite
Locality,Atlin/ British Columbia/ Canada
Grain Size,<45 um
Viewing Geometry,i=35/ e=0
Resolution,~3 cm-1
Formula,Mg5(CO3)4(OH)2*4(H2O)
Composition,XRD shows almost all hydromagnesite/ with a bit of magnesite.

Wavelength
2.001142,0.308856
2.008155,0.312234
2.015217,0.314457
2.022328,0.316994
2.029488,0.32004
2.036698,0.32355
2.043959,0.326969
2.051271,0.328741
2.058635,0.331275
2.066051,0.333463
2.073519,0.334323
2.081041,0.3371296
2.088617,0.339032
2.096247,0.340439
2.103932,0.34462
2.111673,0.34881
2.119471,0.351808
2.127325,0.3517917
2.135237,0.353831
2.143207,0.355748
2.151235,0.356142
2.159324,0.35671
2.167472,0.357189
2.175682,0.356869
2.183952,0.356432
2.192285,0.357208
2.200682,0.355435
2.209141,0.357139
2.217665,0.357363
2.226254,0.357588
2.23491,0.355976
2.243631,0.351608
2.252421,0.345048
2.261278,0.344638
2.270204,0.341905
2.279201,0.339906
2.288268,0.340869
2.297406,0.34037
2.306617,0.335432
2.315901,0.326514
2.325259,0.32245
2.334692,0.317887
2.344201,0.314597
2.353787,0.311843
2.363451,0.311372
2.373194,0.313226
2.383016,0.312329
2.392919,0.311003
2.402903,0.308645
2.412971,0.30364
2.423122,0.299002
2.433358,0.298906
2.443679,0.301411
2.454088,0.304958
2.464585,0.303699
2.475171,0.298488
2.485847,0.292737
2.496615,0.291231
2.507476,0.289191
2.518431,0.283663
2.52948,0.282994
2.540627,0.288317
2.55187,0.29251
2.563213,0.297313
2.574656,0.29793
2.586201,0.297674
2.597849,0.2977297
2.609601,0.297193
2.621459,0.29357
2.633424,0.290073
2.645498,0.285591
2.657682,0.2797996
2.669978,0.279869
2.682387,0.262058
2.694911,0.24994
2.707552,0.221177
2.72031,0.200334
2.733188,0.148619
2.746188,0.06743551
2.759311,0.120868
2.772559,0.09955238
2.785934,0.08023299
2.799437,0.06579493
2.813071,0.05072564
2.826837,0.03322925
2.840737,0.01865811
2.854774,0.01970897
2.868949,0.02102137
2.883265,0.01827118
2.897723,0.01682956
2.912325,0.01737807
2.927075,0.01867773
2.941973,0.02075743
2.957023,0.02358026
2.972226,0.02595424
2.987586,0.02855382
3.003103,0.03160431
3.018782,0.03199575
3.034624,0.03557328
3.050632,0.03363813
3.066809,0.03559656
3.083157,0.03385242
3.099679,0.03494762
3.116378,0.03289132
3.133257,0.03220982
3.150319,0.03225307
3.167566,0.03190968
3.185001,0.03292135
3.202629,0.03232293
3.220451,0.03509565
3.238472,0.03261783
3.256694,0.03579225
3.275122,0.03208323
3.293757,0.03324622
3.312605,0.03177176
3.331669,0.03468612
3.350952,0.03292566
3.370458,0.03248469
3.390191,0.03147585
3.410156,0.03395147
3.430355,0.03466758
3.450794,0.03731304
3.471477,0.04009333
3.492408,0.04561619
3.513592,0.04710096
3.535032,0.05379253
3.556735,0.05476973
3.578704,0.05864667
3.600946,0.06299272
3.623463,0.06572633
3.646263,0.06933006
3.669351,0.07265243
3.692731,0.07605722
3.716409,0.07912104
3.740392,0.08135589
3.764685,0.08123703
3.789294,0.08247265
3.814225,0.08601289
3.839486,0.09203667
3.865081,0.09258254
3.891019,0.09615667
3.917305,0.101413
3.943948,0.104245
3.970954,0.122538
3.99833,0.136348
4.026086,0.144044
4.054228,0.150773
4.082764,0.156679
4.111703,0.162553
4.141054,0.169138
4.170826,0.176578
4.201026,0.191293
4.231666,0.246132
4.262754,0.234603
4.294301,0.2523026
4.326317,0.2418532
4.358811,0.237394
4.391796,0.244859
4.425282,0.256906
4.459281,0.268122
4.493805,0.278839
4.528865,0.290836
4.564475,0.3016477
4.600648,0.3129261
4.637397,0.324614
4.674735,0.3368727
4.712678,0.3494111
4.75124,0.362177
4.790436,0.375122
4.830283,0.386744
4.870795,0.397713
4.911991,0.408692
4.953888,0.42134
4.996504,0.427912
5.039857,0.438607
5.083967,0.453793
5.128854,0.4597698
5.174538,0.470274
5.221041,0.486357
5.268386,0.493715
5.316595,0.500868
5.365692,0.512691
5.415701,0.5447428
5.46665,0.560104
5.518564,0.536659
5.57147,0.515539
5.625399,0.602188
5.680379,0.605841
5.736443,0.62328
5.793621,0.6109
5.851948,0.638255
5.911459,0.644227
5.97219,0.678921
6.034179,0.6866307
6.097466,0.690816
6.162091,0.702393
6.228099,0.696239
6.295533,0.702774
6.36444,0.737248
6.434869,0.751635
6.506872,0.772142
6.580501,0.798536
6.655812,0.774614
6.732864,0.774378
6.811718,0.785329
6.892437,0.7889581
6.975089,0.798343
7.059743,0.807139
7.146475,0.825918
7.23536,0.820713
7.326481,0.839294
7.419922,0.837568
7.515774,0.844796
7.614131,0.853494
7.715093,0.858125
7.818764,0.863539
7.925254,0.871131
8.034682,0.875194
8.147169,0.880114
8.262847,0.884442
8.381852,0.889123
8.504331,0.892428
8.630437,0.8958859
8.760335,0.900211
8.894198,0.903199
9.03221,0.906813
9.174568,0.908842
9.32148,0.909229
9.473167,0.91118
9.629868,0.913539
9.791834,0.9158516
9.959336,0.918478
10.1327,0.921841
10.3121,0.925065
10.498,0.927122
10.69079,0.929297
10.8907,0.930872
11.0983,0.932005
11.3139,0.933077
11.5381,0.934886
11.77129,0.938748
12.0141,0.94138
12.26716,0.942059
12.5311,0.943799
12.8066,0.945693
13.09451,0.948448
13.3956,0.949226
13.7109,0.950555
14.0414,0.952729
14.3882,0.954932
14.7526,0.9512083
15.1359,0.938982
15.5396,0.88963
15.9654,0.720423