File: csv_library/FTIR_LNR_3_6.csv
Database of Origin,University of Winnipeg Spectrophotometer Facility
Sample Description,Lunar samples/ analogues and glasses - D and P 102F FTIR spectra (from PSF) NASA Apollo lunar samples
Other Information,diffuse gold puck 100 spectra averaged
Date Added,2018-07-23 21:03:11.4873

Data ID,FTIR_LNR_3_6
Sample ID,apollo 17 ID# 71061 14 5
Grain Size,<1mm?
Viewing Geometry,i=30/ e=0
Resolution,3 cm-1
Composition,regolith sample

Wavelength
2.001142,0.232972
2.008155,0.233755
2.015217,0.233719
2.022328,0.233691
2.029488,0.234011
2.036698,0.23499
2.043959,0.235089
2.051271,0.235313
2.058635,0.236591
2.066051,0.23726
2.073519,0.237995
2.081041,0.238613
2.088617,0.239815
2.096247,0.240684
2.103932,0.240836
2.111673,0.240829
2.119471,0.242279
2.127325,0.243291
2.135237,0.243471
2.143207,0.244291
2.151235,0.244421
2.159324,0.246277
2.167472,0.247437
2.175682,0.248313
2.183952,0.249263
2.192285,0.25006
2.200682,0.250816
2.209141,0.251641
2.217665,0.252967
2.226254,0.253138
2.23491,0.253617
2.243631,0.255916
2.252421,0.25549
2.261278,0.257296
2.270204,0.257661
2.279201,0.257637
2.288268,0.259957
2.297406,0.259712
2.306617,0.261345
2.315901,0.262322
2.325259,0.262279
2.334692,0.263881
2.344201,0.264984
2.353787,0.266192
2.363451,0.266852
2.373194,0.26749
2.383016,0.268485
2.392919,0.2692767
2.402903,0.270106
2.412971,0.270902
2.423122,0.272042
2.433358,0.273344
2.443679,0.275411
2.454088,0.275533
2.464585,0.277639
2.475171,0.277726
2.485847,0.278932
2.496615,0.280373
2.507476,0.280959
2.518431,0.282429
2.52948,0.283243
2.540627,0.284764
2.55187,0.288638
2.563213,0.292328
2.574656,0.29169
2.586201,0.292294
2.597849,0.291576
2.609601,0.294402
2.621459,0.29877
2.633424,0.296482
2.645498,0.297457
2.657682,0.297268
2.669978,0.308219
2.682387,0.299007
2.694911,0.303703
2.707552,0.296681
2.72031,0.299948
2.733188,0.285536
2.746188,0.281827
2.759311,0.27872
2.772559,0.278959
2.785934,0.276783
2.799437,0.275789
2.813071,0.275271
2.826837,0.275874
2.840737,0.276263
2.854774,0.276965
2.868949,0.276492
2.883265,0.275726
2.897723,0.27651
2.912325,0.276244
2.927075,0.275415
2.941973,0.276213
2.957023,0.276291
2.972226,0.275985
2.987586,0.276596
3.003103,0.278734
3.018782,0.279393
3.034624,0.282734
3.050632,0.2818761
3.066809,0.284397
3.083157,0.28417
3.099679,0.285723
3.116378,0.285547
3.133257,0.285503
3.150319,0.285679
3.167566,0.287001
3.185001,0.288059
3.202629,0.2895
3.220451,0.29163
3.238472,0.291238
3.256694,0.2943537
3.275122,0.292978
3.293757,0.294458
3.312605,0.294561
3.331669,0.297676
3.350952,0.29769
3.370458,0.29639
3.390191,0.298167
3.410156,0.299855
3.430355,0.302732
3.450794,0.304749
3.471477,0.306022
3.492408,0.310657
3.513592,0.311711
3.535032,0.315682
3.556735,0.316278
3.578704,0.318782
3.600946,0.322428
3.623463,0.324432
3.646263,0.327456
3.669351,0.331596
3.692731,0.335479
3.716409,0.339796
3.740392,0.344319
3.764685,0.350047
3.789294,0.355454
3.814225,0.360956
3.839486,0.366162
3.865081,0.370583
3.891019,0.375698
3.917305,0.381281
3.943948,0.388037
3.970954,0.396453
3.99833,0.40336
4.026086,0.410756
4.054228,0.419064
4.082764,0.428637
4.111703,0.439756
4.141054,0.451369
4.170826,0.464096
4.201026,0.477737
4.231666,0.496937
4.262754,0.507884
4.294301,0.525357
4.326317,0.540185
4.358811,0.557055
4.391796,0.574036
4.425282,0.59363
4.459281,0.61032
4.493805,0.624772
4.528865,0.638257
4.564475,0.651131
4.600648,0.664628
4.637397,0.677852
4.674735,0.692737
4.712678,0.709574
4.75124,0.727803
4.790436,0.744459
4.830283,0.75862
4.870795,0.769192
4.911991,0.777049
4.953888,0.784733
4.996504,0.792014
5.039857,0.800081
5.083967,0.808894
5.128854,0.816697
5.174538,0.823454
5.221041,0.832891
5.268386,0.841282
5.316595,0.850586
5.365692,0.86038
5.415701,0.88514
5.46665,0.0100717
5.518564,0.620872
5.57147,0.564624
5.625399,0.659333
5.680379,0.699268
5.736443,0.726291
5.793621,0.747952
5.851948,0.762962
5.911459,0.781736
5.97219,0.792417
6.034179,0.802228
6.097466,0.806711
6.162091,0.814076
6.228099,0.831551
6.295533,0.844567
6.36444,0.851617
6.434869,0.861248
6.506872,0.873251
6.580501,0.882481
6.655812,0.893975
6.732864,0.902424
6.811718,0.908474
6.892437,0.914651
6.975089,0.923448
7.059743,0.931831
7.146475,0.9372
7.23536,0.946295
7.326481,0.953023
7.419922,0.960566
7.515774,0.967156
7.614131,0.974256
7.715093,0.980508
7.818764,0.986681
7.925254,0.992024
8.034682,0.010013
8.147169,0.0100866
8.262847,0.0101473
8.381852,0.0101858
8.504331,0.0102412
8.630437,0.0102877
8.760335,0.0103271
8.894198,0.0103452
9.03221,0.0103675
9.174568,0.0103611
9.32148,0.0103831
9.473167,0.0104037
9.629868,0.0104193
9.791834,0.0104441
9.959336,0.0104842
10.1327,0.0105085
10.3121,0.0105173
10.498,0.010516
10.69079,0.0105045
10.8907,0.0104879
11.0983,0.0104524
11.3139,0.0104109
11.5381,0.0103937
11.77129,0.0103637
12.0141,0.0103369
12.26716,0.0102826
12.5311,0.0102643
12.8066,0.0102861
13.09451,0.010261
13.3956,0.0102095
13.7109,0.0101362
14.0414,0.010053
14.3882,0.99209
14.7526,0.960889
15.1359,0.877987
15.5396,0.664927
15.9654,0.372725