File: csv_library/FTIR_PYX_01.csv
Database of Origin,University of Winnipeg Spectrophotometer Facility
Sample Description,"HOSERLab master pyroxenes, FTIR data"
Date Added,2016-12-14 03:34:49.5076

Data ID,FTIR_PYX_01
Sample ID,PYX003
Mineral Name,Orthopyroxene
Grain Size,<45 um
Viewing Geometry,"i=30, e=0"
Material Class,Inosilicate

Wavelength
2000.56,0.419634
2006.983,0.4230166
2013.447,0.427491
2019.952,0.4316522
2026.499,0.435439
2033.087,0.43926
2039.718,0.4441173
2046.391,0.448481
2053.107,0.452956
2059.867,0.458022
2066.671,0.4627259
2073.519,0.466987
2080.412,0.471145
2087.35,0.476981
2094.334,0.481608
2101.364,0.486785
2108.441,0.4917944
2115.565,0.497425
2122.736,0.502892
2129.956,0.507279
2137.224,0.513073
2144.541,0.518201
2151.907,0.522783
2159.324,0.527417
2166.791,0.532602
2174.309,0.537171
2181.879,0.542191
2189.501,0.547416
2197.175,0.552447
2204.903,0.557462
2212.685,0.562689
2220.521,0.566838
2228.412,0.570541
2236.359,0.5729261
2244.361,0.575386
2252.421,0.5794192
2260.537,0.583791
2268.712,0.586584
2276.945,0.589642
2285.237,0.591484
2293.59,0.593832
2302.002,0.5956382
2310.476,0.598191
2319.012,0.599891
2327.61,0.602842
2336.272,0.606149
2344.997,0.609422
2353.787,0.612369
2362.643,0.614255
2371.564,0.615416
2380.553,0.6165243
2389.609,0.618456
2398.733,0.61963
2407.926,0.621993
2417.19,0.624448
2426.524,0.625581
2435.93,0.626621
2445.408,0.627744
2454.959,0.627698
2464.585,0.628255
2474.285,0.628938
2484.062,0.629777
2493.915,0.629917
2503.845,0.6306
2513.855,0.631154
2523.944,0.63066
2534.113,0.63125
2544.364,0.632005
2554.697,0.631838
2565.113,0.632539
2575.615,0.633521
2586.201,0.634023
2596.874,0.634341
2607.635,0.633794
2618.485,0.6344649
2629.424,0.634394
2640.454,0.630436
2651.576,0.630838
2662.792,0.630152
2674.102,0.627242
2685.507,0.608604
2697.01,0.563462
2708.61,0.534523
2720.31,0.471069
2732.111,0.431994
2744.013,0.415633
2756.019,0.409053
2768.129,0.40061
2780.345,0.398403
2792.669,0.393349
2805.102,0.385574
2817.645,0.385089
2830.299,0.384026
2843.067,0.379567
2855.95,0.37899
2868.949,0.376687
2882.066,0.374302
2895.303,0.371137
2908.661,0.368838
2922.142,0.367183
2935.747,0.366339
2949.479,0.368576
2963.339,0.3693423
2977.328,0.3741172
2991.45,0.376509
3005.705,0.379306
3020.096,0.381901
3034.624,0.386406
3049.292,0.388053
3064.101,0.391194
3079.054,0.393539
3094.153,0.395711
3109.399,0.398431
3124.795,0.402213
3140.344,0.407056
3156.047,0.412732
3171.907,0.418033
3187.926,0.423205
3204.106,0.4270745
3220.451,0.432324
3236.963,0.433993
3253.643,0.438357
3270.495,0.441028
3287.522,0.4444897
3304.726,0.446775
3322.11,0.449218
3339.676,0.450711
3357.429,0.450471
3375.37,0.449162
3393.502,0.450489
3411.83,0.448356
3430.355,0.452829
3449.082,0.45886
3468.013,0.460316
3487.152,0.460609
3506.502,0.461557
3526.067,0.467816
3545.851,0.4701492
3565.856,0.472106
3586.088,0.473669
3606.549,0.473136
3627.244,0.473876
3648.176,0.475034
3669.351,0.474919
3690.771,0.475271
3712.442,0.474768
3734.368,0.476079
3756.553,0.476901
3779.001,0.477113
3801.719,0.4778083
3824.71,0.47862
3847.98,0.4802673
3871.533,0.481338
3895.375,0.482986
3919.512,0.483391
3943.948,0.485275
3968.689,0.488031
3993.742,0.490861
4019.111,0.493858
4044.804,0.496921
4070.825,0.500923
4097.183,0.504859
4123.882,0.509936
4150.931,0.515889
4178.335,0.521831
4206.102,0.5404759
4234.24,0.58723
4262.754,0.574246
4291.655,0.593198
4320.948,0.586771
4350.642,0.583409
4380.746,0.590068
4411.268,0.603027
4442.217,0.6152393
4473.602,0.624504
4505.431,0.632965
4537.716,0.6399518
4570.465,0.647856
4603.688,0.657094
4637.397,0.662917
4671.601,0.669207
4706.312,0.676719
4741.541,0.684921
4777.299,0.695664
4813.6,0.704252
4850.455,0.710523
4887.876,0.717426
4925.878,0.726544
4964.474,0.735302
5003.678,0.742137
5043.504,0.748904
5083.967,0.756709
5125.083,0.761416
5166.868,0.770053
5209.338,0.78689
5252.51,0.79367
5296.401,0.808069
5341.031,0.8190542
5386.417,0.823519
5432.579,0.838837
5479.537,0.867919
5527.312,0.934724
5575.925,0.574699
5625.399,0.751972
5675.757,0.789018
5727.022,0.813031
5779.22,0.8321662
5832.376,0.850458
5886.517,0.870984
5941.67,0.8748179
5997.864,0.873874
6055.129,0.887658
6113.495,0.891373
6172.996,0.894458
6233.663,0.899758
6295.533,0.905926
6358.64,0.918558
6423.023,0.927235
6488.721,0.935327
6555.774,0.936942
6624.224,0.946083
6694.117,0.944004
6765.497,0.949185
6838.413,0.952928
6912.916,0.954052
6989.057,0.958428
7066.891,0.962622
7146.475,0.968888
7227.869,0.970573
7311.135,0.975081
7396.34,0.9788901
7483.55,0.982951
7572.838,0.986014
7664.28,0.987275
7757.953,0.990439
7853.942,0.994455
7952.331,0.998759
8053.214,0.0100319
8156.686,0.0100646
8262.847,0.0101008
8371.804,0.0101387
8483.67,0.0101733
8598.562,0.0102012
8716.604,0.0102282
8837.928,0.0102639
8962.673,0.0102922
9090.986,0.0102912
9223.022,0.0102729
9358.945,0.0102634
9498.929,0.010274
9643.16,0.0102849
9791.834,0.0102968
9945.159,0.0102991
10103.357,0.0102994
10266.663,0.0103158
10435.331,0.0103307
10609.627,0.0103358
10789.839,0.0103391
10976.272,0.0103451
11169.256,0.0103474
11369.141,0.0103338
11576.304,0.0103162
11791.15,0.0103062
12014.114,0.0103069
12245.667,0.0103047
12486.313,0.0102959
12736.599,0.0102913
12997.116,0.010304
13268.505,0.0103106
13551.461,0.0103017
13846.739,0.0102806
14155.163,0.0102645
14477.629,0.0102244
14815.121,0.0101749
15168.712,0.0100725
15539.583,0.96693
15929.033,0.867379
15965.407,0.845683