File: csv_library/FTIR_LNR_3_11.csv
Database of Origin,University of Winnipeg Spectrophotometer Facility
Sample Description,Lunar samples/ analogues and glasses - D and P 102F FTIR spectra (from PSF) NASA Apollo lunar samples
Other Information,diffuse gold puck 100 spectra averaged
Date Added,2018-07-23 21:03:11.6432

Data ID,FTIR_LNR_3_11
Sample ID,apollo 16 ID# 64801 175 4
Grain Size,<1mm?
Viewing Geometry,i=30/ e=0
Resolution,3 cm-1
Composition,regolith sample

Wavelength
2.001142,0.265296
2.008155,0.2642128
2.015217,0.264848
2.022328,0.264434
2.029488,0.264135
2.036698,0.264677
2.043959,0.264467
2.051271,0.265948
2.058635,0.26595
2.066051,0.267127
2.073519,0.267952
2.081041,0.26801
2.088617,0.268801
2.096247,0.269328
2.103932,0.269677
2.111673,0.26993
2.119471,0.269386
2.127325,0.27103
2.135237,0.270663
2.143207,0.27128
2.151235,0.272132
2.159324,0.272584
2.167472,0.274929
2.175682,0.275964
2.183952,0.276111
2.192285,0.277016
2.200682,0.278189
2.209141,0.2801
2.217665,0.281074
2.226254,0.282369
2.23491,0.281502
2.243631,0.284043
2.252421,0.28466
2.261278,0.285737
2.270204,0.286917
2.279201,0.28777
2.288268,0.288801
2.297406,0.289043
2.306617,0.290548
2.315901,0.290892
2.325259,0.292064
2.334692,0.293167
2.344201,0.294393
2.353787,0.295494
2.363451,0.295876
2.373194,0.297909
2.383016,0.29879
2.392919,0.299837
2.402903,0.300966
2.412971,0.301986
2.423122,0.302196
2.433358,0.304157
2.443679,0.306286
2.454088,0.30696
2.464585,0.308235
2.475171,0.309798
2.485847,0.311376
2.496615,0.313382
2.507476,0.314402
2.518431,0.316227
2.52948,0.317368
2.540627,0.319468
2.55187,0.323399
2.563213,0.32748
2.574656,0.327371
2.586201,0.328381
2.597849,0.327153
2.609601,0.330321
2.621459,0.334979
2.633424,0.331825
2.645498,0.333209
2.657682,0.332605
2.669978,0.345483
2.682387,0.332845
2.694911,0.337719
2.707552,0.330375
2.72031,0.332422
2.733188,0.315629
2.746188,0.309924
2.759311,0.306128
2.772559,0.305821
2.785934,0.304486
2.799437,0.303079
2.813071,0.302638
2.826837,0.302767
2.840737,0.301965
2.854774,0.301885
2.868949,0.302568
2.883265,0.301403
2.897723,0.301613
2.912325,0.301009
2.927075,0.300435
2.941973,0.302717
2.957023,0.303584
2.972226,0.301826
2.987586,0.302495
3.003103,0.305233
3.018782,0.304951
3.034624,0.310079
3.050632,0.307435
3.066809,0.310452
3.083157,0.310737
3.099679,0.312064
3.116378,0.311758
3.133257,0.311824
3.150319,0.313276
3.167566,0.314425
3.185001,0.315693
3.202629,0.317172
3.220451,0.320635
3.238472,0.320203
3.256694,0.324106
3.275122,0.322056
3.293757,0.323844
3.312605,0.325296
3.331669,0.329193
3.350952,0.329714
3.370458,0.331167
3.390191,0.3329
3.410156,0.336672
3.430355,0.338937
3.450794,0.339689
3.471477,0.341706
3.492408,0.347883
3.513592,0.349055
3.535032,0.353226
3.556735,0.354109
3.578704,0.358159
3.600946,0.362327
3.623463,0.365318
3.646263,0.368873
3.669351,0.374159
3.692731,0.379228
3.716409,0.385601
3.740392,0.391772
3.764685,0.398627
3.789294,0.405534
3.814225,0.412813
3.839486,0.419459
3.865081,0.426904
3.891019,0.434787
3.917305,0.442571
3.943948,0.451613
3.970954,0.462509
3.99833,0.471745
4.026086,0.48055
4.054228,0.492178
4.082764,0.505124
4.111703,0.519278
4.141054,0.534637
4.170826,0.551172
4.201026,0.568798
4.231666,0.592085
4.262754,0.606985
4.294301,0.627538
4.326317,0.647721
4.358811,0.669802
4.391796,0.691895
4.425282,0.717874
4.459281,0.739744
4.493805,0.757451
4.528865,0.773359
4.564475,0.789317
4.600648,0.807231
4.637397,0.823879
4.674735,0.843077
4.712678,0.865348
4.75124,0.887943
4.790436,0.909212
4.830283,0.925853
4.870795,0.939012
4.911991,0.948812
4.953888,0.958741
4.996504,0.967967
5.039857,0.978281
5.083967,0.988599
5.128854,0.998228
5.174538,0.0100664
5.221041,0.0101796
5.268386,0.0102869
5.316595,0.0103967
5.365692,0.0105316
5.415701,0.0108785
5.46665,0.0124542
5.518564,0.742705
5.57147,0.678576
5.625399,0.803405
5.680379,0.85347
5.736443,0.886861
5.793621,0.908559
5.851948,0.927181
5.911459,0.947102
5.97219,0.95859
6.034179,0.969912
6.097466,0.972764
6.162091,0.977097
6.228099,0.996146
6.295533,0.0100853
6.36444,0.010126
6.434869,0.0102117
6.506872,0.0103462
6.580501,0.0104174
6.655812,0.0105694
6.732864,0.010636
6.811718,0.0106883
6.892437,0.0107598
6.975089,0.0108642
7.059743,0.0109336
7.146475,0.0109597
7.23536,0.0110426
7.326481,0.0110975
7.419922,0.0111804
7.515774,0.0112477
7.614131,0.0113088
7.715093,0.0113672
7.818764,0.011433
7.925254,0.0114796
8.034682,0.0115876
8.147169,0.011666
8.262847,0.0117429
8.381852,0.0117913
8.504331,0.0118587
8.630437,0.0119037
8.760335,0.0119345
8.894198,0.0119441
9.03221,0.0119678
9.174568,0.0119637
9.32148,0.0119898
9.473167,0.0120045
9.629868,0.011994
9.791834,0.0119882
9.959336,0.0119991
10.1327,0.0119859
10.3121,0.0119559
10.498,0.0119293
10.69079,0.0119024
10.8907,0.0118867
11.0983,0.0118521
11.3139,0.0118079
11.5381,0.0117569
11.77129,0.0116997
12.0141,0.0116252
12.26716,0.0115596
12.5311,0.0114997
12.8066,0.0115051
13.09451,0.0114377
13.3956,0.0113587
13.7109,0.0112465
14.0414,0.0111045
14.3882,0.0109179
14.7526,0.0105075
15.1359,0.952508
15.5396,0.705427
15.9654,0.397165