File: csv_library/FTIR_PYX_16.csv
Database of Origin,University of Winnipeg Spectrophotometer Facility
Sample Description,"HOSERLab master pyroxenes, FTIR data"
Date Added,2016-12-14 03:34:50.0019

Data ID,FTIR_PYX_16
Sample ID,PYX119
Mineral Name,Orthopyroxene
Grain Size,<45 um
Viewing Geometry,"i=30, e=0"
Material Class,Inosilicate

Wavelength
2000.56,0.343614
2006.983,0.344408
2013.447,0.346045
2019.952,0.347188
2026.499,0.348546
2033.087,0.350031
2039.718,0.351082
2046.391,0.352459
2053.107,0.35341
2059.867,0.354543
2066.671,0.355438
2073.519,0.357074
2080.412,0.358396
2087.35,0.360228
2094.334,0.361539
2101.364,0.36239
2108.441,0.362305
2115.565,0.362711
2122.736,0.36451
2129.956,0.365561
2137.224,0.3668487
2144.541,0.368294
2151.907,0.369386
2159.324,0.371256
2166.791,0.372972
2174.309,0.373815
2181.879,0.374741
2189.501,0.377194
2197.175,0.3783614
2204.903,0.379502
2212.685,0.380766
2220.521,0.381605
2228.412,0.381822
2236.359,0.381212
2244.361,0.3802302
2252.421,0.381631
2260.537,0.382862
2268.712,0.381897
2276.945,0.382564
2285.237,0.382498
2293.59,0.381535
2302.002,0.381059
2310.476,0.379942
2319.012,0.378963
2327.61,0.380898
2336.272,0.383505
2344.997,0.388245
2353.787,0.391451
2362.643,0.392341
2371.564,0.391468
2380.553,0.391496
2389.609,0.393347
2398.733,0.3959096
2407.926,0.398448
2417.19,0.400206
2426.524,0.4012742
2435.93,0.402566
2445.408,0.403455
2454.959,0.405145
2464.585,0.406815
2474.285,0.407944
2484.062,0.408518
2493.915,0.408962
2503.845,0.409774
2513.855,0.411141
2523.944,0.4126584
2534.113,0.413546
2544.364,0.414986
2554.697,0.416408
2565.113,0.417057
2575.615,0.418411
2586.201,0.42016
2596.874,0.421658
2607.635,0.422169
2618.485,0.424324
2629.424,0.425914
2640.454,0.423867
2651.576,0.424614
2662.792,0.423181
2674.102,0.413481
2685.507,0.354304
2697.01,0.28028
2708.61,0.229179
2720.31,0.21537
2732.111,0.1985286
2744.013,0.197603
2756.019,0.2019771
2768.129,0.2052145
2780.345,0.208095
2792.669,0.208946
2805.102,0.206287
2817.645,0.2081776
2830.299,0.208859
2843.067,0.20918
2855.95,0.210111
2868.949,0.210937
2882.066,0.211429
2895.303,0.210986
2908.661,0.210719
2922.142,0.210363
2935.747,0.210243
2949.479,0.212009
2963.339,0.211635
2977.328,0.214904
2991.45,0.216335
3005.705,0.218852
3020.096,0.221299
3034.624,0.22663
3049.292,0.227573
3064.101,0.2314599
3079.054,0.233835
3094.153,0.236472
3109.399,0.2390125
3124.795,0.242682
3140.344,0.246806
3156.047,0.251305
3171.907,0.256232
3187.926,0.261107
3204.106,0.266165
3220.451,0.272819
3236.963,0.275901
3253.643,0.2829734
3270.495,0.285998
3287.522,0.291018
3304.726,0.295747
3322.11,0.299653
3339.676,0.303136
3357.429,0.306564
3375.37,0.308991
3393.502,0.313434
3411.83,0.3167
3430.355,0.322498
3449.082,0.330118
3468.013,0.334852
3487.152,0.338896
3506.502,0.343363
3526.067,0.35076
3545.851,0.3564246
3565.856,0.3608872
3586.088,0.365636
3606.549,0.3688124
3627.244,0.3738904
3648.176,0.379054
3669.351,0.383271
3690.771,0.387788
3712.442,0.391549
3734.368,0.39637
3756.553,0.401787
3779.001,0.405073
3801.719,0.4091428
3824.71,0.413269
3847.98,0.418266
3871.533,0.423277
3895.375,0.427926
3919.512,0.432512
3943.948,0.436321
3968.689,0.441576
3993.742,0.447956
4019.111,0.45344
4044.804,0.459246
4070.825,0.464996
4097.183,0.4718
4123.882,0.478932
4150.931,0.4865019
4178.335,0.494423
4206.102,0.516919
4234.24,0.57182
4262.754,0.556165
4291.655,0.578036
4320.948,0.570055
4350.642,0.566253
4380.746,0.574176
4411.268,0.588973
4442.217,0.602139
4473.602,0.6124816
4505.431,0.621155
4537.716,0.6284165
4570.465,0.6367692
4603.688,0.645455
4637.397,0.651265
4671.601,0.660232
4706.312,0.670553
4741.541,0.680309
4777.299,0.690163
4813.6,0.698844
4850.455,0.706619
4887.876,0.715046
4925.878,0.723836
4964.474,0.733253
5003.678,0.740808
5043.504,0.748024
5083.967,0.756603
5125.083,0.762098
5166.868,0.771906
5209.338,0.789816
5252.51,0.796052
5296.401,0.809192
5341.031,0.819247
5386.417,0.822845
5432.579,0.83476
5479.537,0.862983
5527.312,0.938576
5575.925,0.555934
5625.399,0.740645
5675.757,0.780933
5727.022,0.806543
5779.22,0.827104
5832.376,0.8444226
5886.517,0.862647
5941.67,0.869537
5997.864,0.870681
6055.129,0.881843
6113.495,0.888858
6172.996,0.894745
6233.663,0.902216
6295.533,0.908615
6358.64,0.919664
6423.023,0.925398
6488.721,0.932249
6555.774,0.937064
6624.224,0.94513
6694.117,0.946991
6765.497,0.953237
6838.413,0.956781
6912.916,0.958638
6989.057,0.963823
7066.891,0.968805
7146.475,0.973795
7227.869,0.976905
7311.135,0.981372
7396.34,0.986014
7483.55,0.990141
7572.838,0.99304
7664.28,0.9942784
7757.953,0.997466
7853.942,0.0100152
7952.331,0.010062
8053.214,0.0101047
8156.686,0.0101383
8262.847,0.0101746
8371.804,0.0102148
8483.67,0.0102458
8598.562,0.0102681
8716.604,0.0102933
8837.928,0.0103275
8962.673,0.0103624
9090.986,0.0103607
9223.022,0.0103372
9358.945,0.0103287
9498.929,0.0103469
9643.16,0.0103637
9791.834,0.0103678
9945.159,0.0103634
10103.357,0.0103676
10266.663,0.0103906
10435.331,0.010401
10609.627,0.0104031
10789.839,0.0104014
10976.272,0.0104107
11169.256,0.0104184
11369.141,0.0104056
11576.304,0.0103841
11791.15,0.0103759
12014.114,0.0103829
12245.667,0.0103756
12486.313,0.0103617
12736.599,0.010351
12997.116,0.0103617
13268.505,0.01037753
13551.461,0.0103789
13846.739,0.0103465
14155.163,0.0103287
14477.629,0.0103018
14815.121,0.010275
15168.712,0.010157
15539.583,0.951472
15929.033,0.775646
15965.407,0.753996