File: csv_library/FTIR_CLAY_05.csv
Database of Origin,University of Winnipeg Spectrophotometer Facility
Sample Description,See Master Clays in HOSERLab database
Date Added,2016-12-11 20:56:55.1731

Data ID,FTIR_CLAY_05
Sample ID,GLA103
Mineral Name,Glauconite
Grain Size,<45 m
Viewing Geometry,35/0
Resolution,11-72 nm
Material Class,Phyllosilicate

Wavelength
2001.142,0.411112
2008.155,0.414768
2015.217,0.418938
2022.328,0.422644
2029.488,0.426276
2036.698,0.4301823
2043.959,0.432802
2051.271,0.435056
2058.635,0.4377008
2066.051,0.439332
2073.519,0.441254
2081.041,0.443459
2088.617,0.446126
2096.247,0.447263
2103.932,0.449373
2111.673,0.451219
2119.471,0.453126
2127.325,0.452814
2135.237,0.453723
2143.207,0.454482
2151.235,0.454836
2159.324,0.452569
2167.472,0.452968
2175.682,0.451734
2183.952,0.449168
2192.285,0.445344
2200.682,0.441384
2209.141,0.437794
2217.665,0.435947
2226.254,0.432048
2234.91,0.423572
2243.631,0.41553
2252.421,0.410026
2261.278,0.411151
2270.204,0.408669
2279.201,0.405729
2288.268,0.3908213
2297.406,0.375709
2306.617,0.370497
2315.901,0.376685
2325.259,0.387349
2334.692,0.3873362
2344.201,0.38186
2353.787,0.377149
2363.451,0.37135
2373.194,0.370116
2383.016,0.373001
2392.919,0.376773
2402.903,0.377878
2412.971,0.375769
2423.122,0.37174
2433.358,0.365685
2443.679,0.359466
2454.088,0.354037
2464.585,0.348498
2475.171,0.34366
2485.847,0.33857
2496.615,0.334915
2507.476,0.332778
2518.431,0.331853
2529.48,0.331314
2540.627,0.331254
2551.87,0.332604
2563.213,0.3371201
2574.656,0.333163
2586.201,0.330925
2597.849,0.3237981
2609.601,0.319454
2621.459,0.314216
2633.424,0.306249
2645.498,0.293157
2657.682,0.281038
2669.978,0.277731
2682.387,0.239183
2694.911,0.19068
2707.552,0.148844
2720.31,0.135837
2733.188,0.07216856
2746.188,0.04192495
2759.311,0.0332727
2772.559,0.02898634
2785.934,0.02666455
2799.437,0.02289559
2813.071,0.02251015
2826.837,0.02233505
2840.737,0.0226553
2854.774,0.02320596
2868.949,0.02307459
2883.265,0.02174655
2897.723,0.02075947
2912.325,0.02028708
2927.075,0.0199329
2941.973,0.01970152
2957.023,0.02084482
2972.226,0.02029175
2987.586,0.01996893
3003.103,0.02087964
3018.782,0.02135997
3034.624,0.02405942
3050.632,0.0226918
3066.809,0.02500704
3083.157,0.02488061
3099.679,0.026858
3116.378,0.02729252
3133.257,0.02913511
3150.319,0.03200665
3167.566,0.03538759
3185.001,0.04034813
3202.629,0.04423959
3220.451,0.05187337
3238.472,0.05464093
3256.694,0.06365212
3275.122,0.0671418
3293.757,0.07507798
3312.605,0.08083928
3331.669,0.09072793
3350.952,0.09490166
3370.458,0.09755671
3390.191,0.102637
3410.156,0.1065
3430.355,0.116946
3450.794,0.132146
3471.477,0.141503
3492.408,0.149969
3513.592,0.159315
3535.032,0.179208
3556.735,0.189909
3578.704,0.201402
3600.946,0.212543
3623.463,0.222146
3646.263,0.231283
3669.351,0.240719
3692.731,0.250483
3716.409,0.260043
3740.392,0.269489
3764.685,0.278388
3789.294,0.287771
3814.225,0.295623
3839.486,0.303696
3865.081,0.310124
3891.019,0.316238
3917.305,0.321895
3943.948,0.326603
3970.954,0.331957
3998.33,0.336307
4026.086,0.339419
4054.228,0.343009
4082.764,0.346892
4111.703,0.351545
4141.054,0.357205
4170.826,0.36297
4201.026,0.379256
4231.666,0.4654
4262.754,0.431514
4294.301,0.455997
4326.317,0.429963
4358.811,0.41819
4391.796,0.423693
4425.282,0.4330116
4459.281,0.4415233
4493.805,0.449216
4528.865,0.457241
4564.475,0.465567
4600.648,0.4744151
4637.397,0.483354
4674.735,0.49269
4712.678,0.503199
4751.24,0.513276
4790.436,0.524626
4830.283,0.532222
4870.795,0.541348
4911.991,0.549109
4953.888,0.559233
4996.504,0.563364
5039.857,0.5718056
5083.967,0.585595
5128.854,0.59042
5174.538,0.598327
5221.041,0.610048
5268.386,0.610311
5316.595,0.614559
5365.692,0.626099
5415.701,0.657809
5466.65,0.688046
5518.564,0.743152
5571.47,0.657861
5625.399,0.5173337
5680.379,0.576318
5736.443,0.602894
5793.621,0.606484
5851.948,0.62965
5911.459,0.637526
5972.19,0.663709
6034.179,0.670936
6097.466,0.675132
6162.091,0.686003
6228.099,0.6886451
6295.533,0.6975283
6364.44,0.726393
6434.869,0.739032
6506.872,0.756184
6580.501,0.779215
6655.812,0.763208
6732.864,0.761644
6811.718,0.769838
6892.437,0.77243
6975.089,0.778319
7059.743,0.784135
7146.475,0.800023
7235.36,0.795645
7326.481,0.810518
7419.922,0.808381
7515.774,0.814104
7614.131,0.821861
7715.093,0.8257452
7818.764,0.829674
7925.254,0.836287
8034.682,0.841342
8147.169,0.846537
8262.847,0.84879
8381.852,0.851862
8504.331,0.854378
8630.437,0.85693
8760.335,0.859524
8894.198,0.862674
9032.21,0.864885
9174.568,0.866192
9321.48,0.867246
9473.167,0.870123
9629.868,0.872742
9791.834,0.87589
9959.336,0.878874
10132.662,0.881329
10312.121,0.884001
10498.045,0.886136
10690.79,0.88784
10890.738,0.886446
11098.301,0.884633
11313.921,0.88444
11538.079,0.886399
11771.29,0.887373
12014.114,0.888562
12267.16,0.887269
12531.086,0.888405
12806.608,0.88894
13094.51,0.8886
13395.644,0.888184
13710.943,0.888238
14041.433,0.884557
14388.237,0.874022
14752.594,0.848194
15135.871,0.776221
15539.583,0.5800986
15965.407,0.365713