File: csv_library/FTIR_LNR_3_10.csv
Database of Origin,University of Winnipeg Spectrophotometer Facility
Sample Description,Lunar samples/ analogues and glasses - D and P 102F FTIR spectra (from PSF) NASA Apollo lunar samples
Other Information,diffuse gold puck 100 spectra averaged
Date Added,2018-07-23 21:03:11.6142

Data ID,FTIR_LNR_3_10
Sample ID,apollo 12 ID# 12030 185 7
Grain Size,<1mm?
Viewing Geometry,i=30/ e=0
Resolution,3 cm-1
Composition,regolith sample

Wavelength
2.001142,0.245871
2.008155,0.245621
2.015217,0.245703
2.022328,0.245967
2.029488,0.245731
2.036698,0.246155
2.043959,0.246686
2.051271,0.247203
2.058635,0.248809
2.066051,0.249445
2.073519,0.24963
2.081041,0.249578
2.088617,0.250824
2.096247,0.251195
2.103932,0.250989
2.111673,0.251326
2.119471,0.25168
2.127325,0.253146
2.135237,0.254174
2.143207,0.254502
2.151235,0.254777
2.159324,0.256163
2.167472,0.257169
2.175682,0.258107
2.183952,0.259221
2.192285,0.26036
2.200682,0.261341
2.209141,0.26301
2.217665,0.263561
2.226254,0.265069
2.23491,0.265635
2.243631,0.267176
2.252421,0.267627
2.261278,0.268509
2.270204,0.269732
2.279201,0.271163
2.288268,0.272595
2.297406,0.272678
2.306617,0.274654
2.315901,0.274969
2.325259,0.275403
2.334692,0.276224
2.344201,0.277356
2.353787,0.278032
2.363451,0.279043
2.373194,0.280273
2.383016,0.281014
2.392919,0.281863
2.402903,0.282754
2.412971,0.283688
2.423122,0.284521
2.433358,0.285384
2.443679,0.287833
2.454088,0.28794
2.464585,0.288446
2.475171,0.289124
2.485847,0.290513
2.496615,0.292099
2.507476,0.29303
2.518431,0.294974
2.52948,0.296043
2.540627,0.297472
2.55187,0.300676
2.563213,0.304527
2.574656,0.303994
2.586201,0.305008
2.597849,0.30355
2.609601,0.306677
2.621459,0.31085
2.633424,0.308611
2.645498,0.309619
2.657682,0.309083
2.669978,0.320185
2.682387,0.309391
2.694911,0.313632
2.707552,0.306015
2.72031,0.308269
2.733188,0.292804
2.746188,0.28752
2.759311,0.282995
2.772559,0.283283
2.785934,0.28068
2.799437,0.279035
2.813071,0.278721
2.826837,0.278569
2.840737,0.277594
2.854774,0.2783329
2.868949,0.277334
2.883265,0.277294
2.897723,0.277278
2.912325,0.27667
2.927075,0.276291
2.941973,0.276616
2.957023,0.278181
2.972226,0.277458
2.987586,0.277908
3.003103,0.280949
3.018782,0.280784
3.034624,0.285103
3.050632,0.284016
3.066809,0.286478
3.083157,0.286339
3.099679,0.287143
3.116378,0.286808
3.133257,0.287322
3.150319,0.288236
3.167566,0.289215
3.185001,0.289963
3.202629,0.292018
3.220451,0.295315
3.238472,0.29461
3.256694,0.298584
3.275122,0.296704
3.293757,0.298162
3.312605,0.299878
3.331669,0.30326
3.350952,0.303144
3.370458,0.303888
3.390191,0.306134
3.410156,0.309368
3.430355,0.311258
3.450794,0.312086
3.471477,0.31441
3.492408,0.319217
3.513592,0.320726
3.535032,0.323984
3.556735,0.325533
3.578704,0.328472
3.600946,0.331788
3.623463,0.334445
3.646263,0.337473
3.669351,0.341348
3.692731,0.345844
3.716409,0.351048
3.740392,0.355875
3.764685,0.36124
3.789294,0.367332
3.814225,0.373655
3.839486,0.379607
3.865081,0.385462
3.891019,0.391824
3.917305,0.39892
3.943948,0.406407
3.970954,0.416046
3.99833,0.424384
4.026086,0.432575
4.054228,0.44192
4.082764,0.452683
4.111703,0.465171
4.141054,0.478189
4.170826,0.4925
4.201026,0.506777
4.231666,0.528456
4.262754,0.540926
4.294301,0.559301
4.326317,0.576734
4.358811,0.595558
4.391796,0.614817
4.425282,0.636915
4.459281,0.655868
4.493805,0.671519
4.528865,0.685497
4.564475,0.700338
4.600648,0.715323
4.637397,0.730251
4.674735,0.746482
4.712678,0.765766
4.75124,0.785647
4.790436,0.803359
4.830283,0.817074
4.870795,0.828315
4.911991,0.836808
4.953888,0.845538
4.996504,0.8536
5.039857,0.862562
5.083967,0.871959
5.128854,0.880486
5.174538,0.888011
5.221041,0.897979
5.268386,0.90746
5.316595,0.917555
5.365692,0.930152
5.415701,0.962583
5.46665,0.0109757
5.518564,0.663878
5.57147,0.628619
5.625399,0.728759
5.680379,0.773528
5.736443,0.802095
5.793621,0.822562
5.851948,0.839702
5.911459,0.857053
5.97219,0.868341
6.034179,0.879211
6.097466,0.88225
6.162091,0.887584
6.228099,0.902444
6.295533,0.913564
6.36444,0.919548
6.434869,0.927861
6.506872,0.940421
6.580501,0.948094
6.655812,0.961679
6.732864,0.968027
6.811718,0.974163
6.892437,0.980437
6.975089,0.989009
7.059743,0.996655
7.146475,0.010012
7.23536,0.0100914
7.326481,0.0101586
7.419922,0.010232
7.515774,0.0102948
7.614131,0.010356
7.715093,0.0104167
7.818764,0.0104818
7.925254,0.0105294
8.034682,0.0106289
8.147169,0.0106999
8.262847,0.0107646
8.381852,0.0108055
8.504331,0.0108634
8.630437,0.0109046
8.760335,0.0109344
8.894198,0.0109509
9.03221,0.0109716
9.174568,0.0109654
9.32148,0.010985
9.473167,0.0110039
9.629868,0.0110122
9.791834,0.0110269
9.959336,0.0110527
10.1327,0.0110622
10.3121,0.0110571
10.498,0.0110479
10.69079,0.0110296
10.8907,0.0110117
11.0983,0.0109759
11.3139,0.0109354
11.5381,0.0109043
11.77129,0.0108579
12.0141,0.0108152
12.26716,0.0107525
12.5311,0.0107144
12.8066,0.0107407
13.09451,0.0106922
13.3956,0.0106337
13.7109,0.0105424
14.0414,0.0104344
14.3882,0.0102663
14.7526,0.989694
15.1359,0.893835
15.5396,0.662942
15.9654,0.359224