File: csv_library/FTIR_CARB_39_2.csv
Database of Origin,University of Winnipeg Spectrophotometer Facility
Sample Description,Carbonates and Oxolates -  D&P Spectra Reflectance spectra
Other Information,in air reference no window
Date Added,2018-08-06 21:06:09.513860

Data ID,FTIR_CARB_39_2
Sample ID,CRB105
Mineral Name,Huntite
Locality,Currant Creek/ Nevada/ USA
Grain Size,<45 um
Viewing Geometry,i=35/ e=0
Resolution,~3 cm-1
Formula,Mg3Ca(CO3)5
Composition,Huntite plus a few very minor peaks.

Wavelength
2.001142,0.336917
2.008155,0.338465
2.015217,0.339665
2.022328,0.340552
2.029488,0.340518
2.036698,0.340932
2.043959,0.341788
2.051271,0.342101
2.058635,0.342051
2.066051,0.342461
2.073519,0.34181
2.081041,0.341854
2.088617,0.34224
2.096247,0.342541
2.103932,0.3438594
2.111673,0.344831
2.119471,0.345522
2.127325,0.343986
2.135237,0.3452233
2.143207,0.346051
2.151235,0.345251
2.159324,0.345121
2.167472,0.344076
2.175682,0.34272
2.183952,0.342434
2.192285,0.342217
2.200682,0.3408578
2.209141,0.339318
2.217665,0.338773
2.226254,0.3367862
2.23491,0.334694
2.243631,0.331811
2.252421,0.330365
2.261278,0.327727
2.270204,0.325179
2.279201,0.322703
2.288268,0.318982
2.297406,0.316043
2.306617,0.310604
2.315901,0.305005
2.325259,0.306809
2.334692,0.30954
2.344201,0.315637
2.353787,0.320567
2.363451,0.320278
2.373194,0.316668
2.383016,0.313365
2.392919,0.312185
2.402903,0.311304
2.412971,0.309516
2.423122,0.305428
2.433358,0.302206
2.443679,0.29954
2.454088,0.296658
2.464585,0.293503
2.475171,0.290954
2.485847,0.2877702
2.496615,0.283804
2.507476,0.282502
2.518431,0.283924
2.52948,0.28781
2.540627,0.291542
2.55187,0.292656
2.563213,0.297496
2.574656,0.2955747
2.586201,0.2968171
2.597849,0.2956
2.609601,0.293062
2.621459,0.291755
2.633424,0.287974
2.645498,0.27982
2.657682,0.270991
2.669978,0.267834
2.682387,0.209481
2.694911,0.11782
2.707552,0.07188077
2.72031,0.08182589
2.733188,0.07102674
2.746188,0.06264621
2.759311,0.06240267
2.772559,0.06052495
2.785934,0.05721686
2.799437,0.05350534
2.813071,0.0511365
2.826837,0.04837993
2.840737,0.0449064
2.854774,0.04262461
2.868949,0.04104916
2.883265,0.03841968
2.897723,0.03682789
2.912325,0.0351227
2.927075,0.03351013
2.941973,0.0336212
2.957023,0.03497185
2.972226,0.03370031
2.987586,0.03313217
3.003103,0.03574643
3.018782,0.03501976
3.034624,0.03943203
3.050632,0.03737914
3.066809,0.03980548
3.083157,0.03904566
3.099679,0.04093044
3.116378,0.04024351
3.133257,0.04132879
3.150319,0.04334268
3.167566,0.04496577
3.185001,0.04904053
3.202629,0.05009054
3.220451,0.05598793
3.238472,0.05596039
3.256694,0.06131142
3.275122,0.05412286
3.293757,0.05941158
3.312605,0.05946071
3.331669,0.06524898
3.350952,0.06586796
3.370458,0.0655578
3.390191,0.06564324
3.410156,0.06499716
3.430355,0.0648275
3.450794,0.07243704
3.471477,0.08075666
3.492408,0.0968985
3.513592,0.107718
3.535032,0.120577
3.556735,0.126544
3.578704,0.133315
3.600946,0.139487
3.623463,0.1436782
3.646263,0.147342
3.669351,0.147553
3.692731,0.14551
3.716409,0.147266
3.740392,0.139223
3.764685,0.127769
3.789294,0.1169029
3.814225,0.116576
3.839486,0.115669
3.865081,0.110145
3.891019,0.106206
3.917305,0.100421
3.943948,0.101607
3.970954,0.1262907
3.99833,0.168529
4.026086,0.196779
4.054228,0.212675
4.082764,0.2225393
4.111703,0.2297495
4.141054,0.23702
4.170826,0.244136
4.201026,0.259043
4.231666,0.324292
4.262754,0.30386
4.294301,0.323157
4.326317,0.306299
4.358811,0.2981
4.391796,0.303164
4.425282,0.313104
4.459281,0.32268
4.493805,0.331939
4.528865,0.341468
4.564475,0.350053
4.600648,0.360973
4.637397,0.376332
4.674735,0.39154
4.712678,0.405079
4.75124,0.418343
4.790436,0.431847
4.830283,0.44305
4.870795,0.4539
4.911991,0.464468
4.953888,0.47822
4.996504,0.485421
5.039857,0.495061
5.083967,0.510782
5.128854,0.5176375
5.174538,0.527773
5.221041,0.542053
5.268386,0.549427
5.316595,0.557115
5.365692,0.567222
5.415701,0.592937
5.46665,0.608198
5.518564,0.5999942
5.57147,0.519246
5.625399,0.61457
5.680379,0.634832
5.736443,0.656426
5.793621,0.654927
5.851948,0.685443
5.911459,0.696532
5.97219,0.726424
6.034179,0.7338611
6.097466,0.739537
6.162091,0.749868
6.228099,0.745843
6.295533,0.749457
6.36444,0.777443
6.434869,0.788656
6.506872,0.805935
6.580501,0.829096
6.655812,0.810866
6.732864,0.810574
6.811718,0.821657
6.892437,0.827098
6.975089,0.837376
7.059743,0.84406
7.146475,0.860614
7.23536,0.857298
7.326481,0.873509
7.419922,0.872654
7.515774,0.880588
7.614131,0.888794
7.715093,0.89278
7.818764,0.89794
7.925254,0.905229
8.034682,0.910775
8.147169,0.915944
8.262847,0.920609
8.381852,0.925282
8.504331,0.929511
8.630437,0.932695
8.760335,0.935972
8.894198,0.939779
9.03221,0.942875
9.174568,0.943223
9.32148,0.942939
9.473167,0.944767
9.629868,0.947816
9.791834,0.949881
9.959336,0.951536
10.1327,0.954061
10.3121,0.957319
10.498,0.959077
10.69079,0.959882
10.8907,0.960633
11.0983,0.960938
11.3139,0.961618
11.5381,0.962151
11.77129,0.9623039
12.0141,0.96384
12.26716,0.964022
12.5311,0.964262
12.8066,0.964082
13.09451,0.965076
13.3956,0.966079
13.7109,0.966411
14.0414,0.962778
14.3882,0.957985
14.7526,0.943857
15.1359,0.901064
15.5396,0.760216
15.9654,0.5126383