File: csv_library/FTIR_MET_4_2.csv
Database of Origin,University of Winnipeg Spectrophotometer Facility
Sample Description,16. Meteorites. 16.1 Iron meteorites and components 16.1.2. UND samples.  (a) PSF D&P spectra
Other Information,only good to 4.3 um illum. spot larger than viewed spot (8mm)
Date Added,2018-07-23 23:32:11.5377

Data ID,FTIR_MET_4_2
Sample ID,Tucson
Mineral Name,Tucson
Grain Size,Slab
Viewing Geometry,i=30/ e=0
Resolution,6 cm-1
Composition,Cloudy Spot
Material Class,Iron Meteorite

Wavelength
2000.56,0.357883
2006.983,0.355492
2013.447,0.353465
2019.952,0.351496
2026.499,0.34994
2033.087,0.34899
2039.718,0.347323
2046.391,0.346578
2053.107,0.3451287
2059.867,0.344184
2066.671,0.34326
2073.519,0.342047
2080.412,0.341495
2087.35,0.340636
2094.334,0.339615
2101.364,0.338833
2108.441,0.338252
2115.565,0.3373524
2122.736,0.3367034
2129.956,0.336336
2137.224,0.335603
2144.541,0.33431
2151.907,0.333721
2159.324,0.334002
2166.791,0.333486
2174.309,0.332767
2181.879,0.332565
2189.501,0.332422
2197.175,0.332146
2204.903,0.332152
2212.685,0.331821
2220.521,0.330835
2228.412,0.3302939
2236.359,0.329544
2244.361,0.329283
2252.421,0.328317
2260.537,0.327477
2268.712,0.326961
2276.945,0.326682
2285.237,0.325955
2293.59,0.325519
2302.002,0.324848
2310.476,0.324364
2319.012,0.324418
2327.61,0.324232
2336.272,0.323369
2344.997,0.323563
2353.787,0.323011
2362.643,0.3230192
2371.564,0.323007
2380.553,0.322583
2389.609,0.322475
2398.733,0.322374
2407.926,0.3221731
2417.19,0.322487
2426.524,0.322347
2435.93,0.323204
2445.408,0.3237126
2454.959,0.323372
2464.585,0.323184
2474.285,0.32389
2484.062,0.324724
2493.915,0.3248897
2503.845,0.326008
2513.855,0.326723
2523.944,0.327665
2534.113,0.330954
2544.364,0.332495
2554.697,0.3304479
2565.113,0.338797
2575.615,0.341925
2586.201,0.345088
2596.874,0.350466
2607.635,0.347863
2618.485,0.35226
2629.424,0.349959
2640.454,0.334244
2651.576,0.339184
2662.792,0.348437
2674.102,0.354199
2685.507,0.353348
2697.01,0.366629
2708.61,0.407236
2720.31,0.475783
2732.111,0.389474
2744.013,0.373548
2756.019,0.376766
2768.129,0.353635
2780.345,0.343538
2792.669,0.335904
2805.102,0.347538
2817.645,0.335015
2830.299,0.330088
2843.067,0.327323
2855.95,0.327448
2868.949,0.323162
2882.066,0.3200882
2895.303,0.31635
2908.661,0.315023
2922.142,0.313173
2935.747,0.309093
2949.479,0.307545
2963.339,0.304747
2977.328,0.303981
2991.45,0.301841
3005.705,0.300805
3020.096,0.299977
3034.624,0.300123
3049.292,0.2992
3064.101,0.300427
3079.054,0.301556
3094.153,0.302043
3109.399,0.302133
3124.795,0.301919
3140.344,0.30248
3156.047,0.303685
3171.907,0.304948
3187.926,0.305731
3204.106,0.3072547
3220.451,0.308566
3236.963,0.307701
3253.643,0.308791
3270.495,0.308344
3287.522,0.308922
3304.726,0.309781
3322.11,0.310114
3339.676,0.309606
3357.429,0.308184
3375.37,0.305379
3393.502,0.30328
3411.83,0.297622
3430.355,0.291209
3449.082,0.304392
3468.013,0.308832
3487.152,0.309701
3506.502,0.303878
3526.067,0.315557
3545.851,0.320393
3565.856,0.323404
3586.088,0.326202
3606.549,0.327889
3627.244,0.329907
3648.176,0.332462
3669.351,0.334554
3690.771,0.33678
3712.442,0.33972
3734.368,0.342405
3756.553,0.345644
3779.001,0.349062
3801.719,0.352082
3824.71,0.35454
3847.98,0.357541
3871.533,0.36087
3895.375,0.364021
3919.512,0.367158
3943.948,0.370627
3968.689,0.374356
3993.742,0.378591
4019.111,0.3828378
4044.804,0.387426
4070.825,0.392998
4097.183,0.399212
4123.882,0.405981
4150.931,0.413782
4178.335,0.422293
4206.102,0.450371
4234.24,0.548108
4262.754,0.498186
4291.655,0.53085
4320.948,0.505235
4350.642,0.493171
4380.746,0.4977249
4411.268,0.510458
4442.217,0.522036
4473.602,0.531104
4505.431,0.536697
4537.716,0.5448735
4570.465,0.552633
4603.688,0.560951
4637.397,0.569903
4671.601,0.579344
4706.312,0.589406
4741.541,0.599717
4777.299,0.60795
4813.6,0.616717
4850.455,0.6243181
4887.876,0.6313603
4925.878,0.638626
4964.474,0.646383
5003.678,0.653859
5043.504,0.658588
5083.967,0.669188
5125.083,0.6734145
5166.868,0.680357
5209.338,0.69811
5252.51,0.696999
5296.401,0.7109858
5341.031,0.721461
5386.417,0.726452
5432.579,0.775667
5479.537,0.0101752
5527.312,0.0172859
5575.925,0.169585
5625.399,0.325889
5675.757,0.406048
5727.022,0.454903
5779.22,0.488964
5832.376,0.517448
5886.517,0.535738
5941.67,0.556718
5997.864,0.570126
6055.129,0.5750571
6113.495,0.587855
6172.996,0.601407
6233.663,0.622204
6295.533,0.6370906
6358.64,0.651101
6423.023,0.663698
6488.721,0.676987
6555.774,0.695393
6624.224,0.711169
6694.117,0.716683
6765.497,0.726218
6838.413,0.731891
6912.916,0.736573
6989.057,0.747658
7066.891,0.756588
7146.475,0.770514
7227.869,0.778947
7311.135,0.790614
7396.34,0.798651
7483.55,0.8090118
7572.838,0.817205
7664.28,0.823326
7757.953,0.830254
7853.942,0.836514
7952.331,0.843368
8053.214,0.850516
8156.686,0.855812
8262.847,0.859814
8371.804,0.864245
8483.67,0.86762
8598.562,0.870549
8716.604,0.873418
8837.928,0.876558
8962.673,0.879679
9090.986,0.880362
9223.022,0.879632
9358.945,0.881169
9498.929,0.885571
9643.16,0.890592
9791.834,0.894705
9945.159,0.898229
10103.357,0.900712
10266.663,0.903934
10435.331,0.905946
10609.627,0.906411
10789.839,0.905123
10976.272,0.902989
11169.256,0.901229
11369.141,0.900225
11576.304,0.899335
11791.15,0.898841
12014.114,0.899294
12245.667,0.897051
12486.313,0.895348
12736.599,0.894347
12997.116,0.891897
13268.505,0.887899
13551.461,0.882527
13846.739,0.87326
14155.163,0.85572
14477.629,0.82209
14815.121,0.756525
15168.712,0.617684
15539.583,0.372928
15929.033,0.196108
15965.407,0.186129