File: csv_library/FTIR_PLG_05.csv
Database of Origin,University of Winnipeg Spectrophotometer Facility
Sample Description,IR Reflectance spectra of plagioclase with a Bruker Vertex 70 FTIR. See Master Plagioclase in PSF database for additional info.
Date Added,2016-11-22 04:00:06.339867

Data ID,FTIR_PLG_05
Sample ID,PLG113
Mineral Name,Plagioclase
Grain Size,<45 um
Viewing Geometry,"i30, e0"
Resolution,7.71cm-1
Material Class,Tectosilicate

Wavelength
1670.16,0.45516
1676.64,0.45453
1683.18,0.45537
1689.76,0.45464
1696.39,0.45347
1703.08,0.45423
1709.82,0.45399
1716.62,0.45451
1723.46,0.45401
1730.37,0.45397
1737.33,0.45419
1744.34,0.45423
1751.41,0.45347
1758.54,0.45405
1765.73,0.45349
1772.98,0.45348
1780.28,0.45375
1787.65,0.45414
1795.08,0.45349
1802.57,0.45501
1810.12,0.45458
1817.73,0.45701
1825.42,0.45865
1833.16,0.46064
1840.97,0.46334
1848.85,0.46134
1856.8,0.46133
1864.81,0.45961
1872.9,0.46628
1881.05,0.45593
1889.28,0.45709
1897.58,0.45849
1905.95,0.45959
1914.39,0.45707
1922.92,0.45562
1931.51,0.45341
1940.19,0.4532
1948.94,0.4518
1957.77,0.45193
1966.68,0.45148
1975.68,0.45176
1984.76,0.452
1993.92,0.45199
2003.16,0.45211
2012.49,0.45211
2021.91,0.45226
2031.42,0.45263
2041.02,0.45295
2050.7,0.45203
2060.48,0.4526
2070.36,0.45285
2080.33,0.45266
2090.4,0.45286
2100.56,0.45274
2110.82,0.45234
2121.19,0.45238
2131.65,0.45251
2142.22,0.45221
2152.9,0.45238
2163.68,0.45228
2174.57,0.45136
2185.57,0.45088
2196.69,0.45085
2207.91,0.45091
2219.26,0.45111
2230.71,0.45095
2242.29,0.45088
2253.99,0.45066
2265.813,0.45045
2277.76,0.45024
2289.83,0.45008
2302.03,0.45008
2314.37,0.44993
2326.83,0.44961
2339.43,0.4489
2352.17,0.44864
2365.05,0.44879
2378.06,0.44895
2391.23,0.44864
2404.54,0.44869
2417.99,0.44871
2431.6,0.44812
2445.37,0.4481
2459.29,0.44754
2473.37,0.44736
2487.61,0.44791
2502.02,0.44801
2516.59,0.44862
2531.34,0.45266
2546.26,0.45735
2561.35,0.46564
2576.63,0.47134
2592.09,0.47954
2607.74,0.48131
2623.57,0.47401
2639.6,0.45771
2655.83,0.46755
2672.26,0.49393
2688.89,0.46374
2705.73,0.44413
2722.78,0.41523
2740.05,0.37642
2757.54,0.3515
2775.26,0.34531
2793.2,0.33247
2811.38,0.32063
2829.79,0.30967
2848.45,0.2999
2867.36,0.28751
2886.51,0.29048
2905.93,0.29133
2925.61,0.28794
2945.56,0.28758
2965.78,0.28922
2986.28,0.29268
3007.07,0.29679
3028.14,0.30121
3049.52,0.30505
3071.2,0.30877
3093.19,0.313
3115.49,0.31678
3138.12,0.32166
3161.09,0.32708
3184.39,0.33489
3208.03,0.34312
3232.03,0.34915
3256.39,0.35477
3281.13,0.36024
3306.24,0.36581
3331.74,0.36978
3357.63,0.36962
3383.93,0.3704
3410.64,0.36945
3437.79,0.37986
3465.36,0.38679
3493.38,0.38931
3521.86,0.39886
3550.81,0.40421
3580.23,0.40747
3610.15,0.41066
3640.58,0.41334
3671.52,0.41537
3702.99,0.41728
3735,0.41895
3767.57,0.42045
3800.72,0.42101
3834.45,0.4212
3868.79,0.42126
3903.75,0.42124
3939.35,0.42063
3975.6,0.41955
4012.52,0.41907
4050.14,0.41774
4088.47,0.41658
4127.53,0.41503
4167.35,0.4128
4207.94,0.43806
4249.33,0.45933
4291.54,0.44704
4334.6,0.4007
4378.53,0.38368
4423.36,0.37438
4469.12,0.36368
4515.84,0.35386
4563.54,0.34301
4612.26,0.33004
4662.03,0.31786
4712.89,0.30718
4764.87,0.2991
4818.01,0.29166
4872.35,0.28491
4927.93,0.2768
4984.79,0.26599
5042.98,0.25238
5102.54,0.23356
5163.53,0.21692
5225.99,0.20358
5289.98,0.19254
5355.56,0.18446
5422.78,0.17415
5491.72,0.16324
5562.43,0.15702
5634.98,0.15001
5709.45,0.14548
5785.92,0.13721
5864.46,0.13067
5945.16,0.11858
6028.12,0.10943
6113.42,0.10569
6201.17,0.10185
6291.48,0.09798
6384.46,0.10337
6480.23,0.10436
6578.91,0.10172
6680.64,0.09292
6785.58,0.08529
6893.86,0.07648
7005.65,0.06854
7121.13,0.0592
7240.48,0.04803
7363.89,0.03724
7491.59,0.02694
7623.79,0.01782
7760.75,0.01121
7902.71,0.0078
8049.97,0.0082
8202.82,0.01839
8361.58,0.03324
8526.61,0.03433
8698.29,0.03628
8877.02,0.03339
9063.25,0.02863
9257.46,0.02546
9460.18,0.03037
9671.98,0.03662
9893.47,0.03977
10125.4,0.0393
10368.4,0.03927
10623.3,0.04105
10891.1,0.04126
11172.8,0.04599
11469.4,0.05745
11782.2,0.06383
12112.6,0.06488
12462,0.03579
12832.1,0.02308
13224.9,0.02189
13642.6,0.02271
14087.4,0.02145
14562.3,0.0191
15070.3,0.01916
15615,0.02766
16200.6,0.03023
16831.8,0.03734
17514.1,0.03671
18254.2,0.03518
19059.5,0.03598
19939.2,0.03119
20904,0.03049
21966.9,0.02378
23143.7,0.02932
24453.7,0.04014
25412.6,0.05871