File: csv_library/FTIR_PYX_02.csv
Database of Origin,University of Winnipeg Spectrophotometer Facility
Sample Description,"HOSERLab master pyroxenes, FTIR data"
Date Added,2016-12-14 03:34:49.5455

Data ID,FTIR_PYX_02
Sample ID,PYX003
Mineral Name,Orthopyroxene
Grain Size,45-90 um
Viewing Geometry,"i=30, e=0"
Material Class,Inosilicate

Wavelength
2000.56,0.256769
2006.983,0.259911
2013.447,0.263602
2019.952,0.267161
2026.499,0.27024
2033.087,0.273615
2039.718,0.277766
2046.391,0.281298
2053.107,0.285606
2059.867,0.290019
2066.671,0.29484
2073.519,0.299608
2080.412,0.304384
2087.35,0.308879
2094.334,0.314228
2101.364,0.3194426
2108.441,0.324641
2115.565,0.329414
2122.736,0.335116
2129.956,0.340712
2137.224,0.346024
2144.541,0.352522
2151.907,0.357665
2159.324,0.363486
2166.791,0.369996
2174.309,0.376354
2181.879,0.382006
2189.501,0.3886343
2197.175,0.3946715
2204.903,0.400841
2212.685,0.407245
2220.521,0.413243
2228.412,0.417905
2236.359,0.422229
2244.361,0.4259235
2252.421,0.431555
2260.537,0.438239
2268.712,0.442511
2276.945,0.44692
2285.237,0.450591
2293.59,0.454267
2302.002,0.4575707
2310.476,0.461018
2319.012,0.464434
2327.61,0.468308
2336.272,0.47332
2344.997,0.477823
2353.787,0.4824132
2362.643,0.4859316
2371.564,0.488084
2380.553,0.4900284
2389.609,0.492911
2398.733,0.495234
2407.926,0.498611
2417.19,0.502
2426.524,0.503758
2435.93,0.505546
2445.408,0.507237
2454.959,0.508168
2464.585,0.5093012
2474.285,0.510566
2484.062,0.511289
2493.915,0.511601
2503.845,0.512468
2513.855,0.512718
2523.944,0.513265
2534.113,0.513762
2544.364,0.513791
2554.697,0.513579
2565.113,0.5141559
2575.615,0.5144527
2586.201,0.514967
2596.874,0.514643
2607.635,0.513494
2618.485,0.514835
2629.424,0.514055
2640.454,0.508952
2651.576,0.509702
2662.792,0.508929
2674.102,0.505044
2685.507,0.481115
2697.01,0.4250487
2708.61,0.401186
2720.31,0.355902
2732.111,0.324896
2744.013,0.316495
2756.019,0.31621
2768.129,0.3137642
2780.345,0.317683
2792.669,0.3150512
2805.102,0.305254
2817.645,0.305968
2830.299,0.306688
2843.067,0.300726
2855.95,0.301429
2868.949,0.3005997
2882.066,0.298032
2895.303,0.29575
2908.661,0.293059
2922.142,0.290645
2935.747,0.2891816
2949.479,0.291444
2963.339,0.291835
2977.328,0.294823
2991.45,0.295119
3005.705,0.295708
3020.096,0.29594
3034.624,0.299379
3049.292,0.298608
3064.101,0.3001302
3079.054,0.300106
3094.153,0.300252
3109.399,0.300812
3124.795,0.302473
3140.344,0.304653
3156.047,0.307767
3171.907,0.310426
3187.926,0.312519
3204.106,0.314577
3220.451,0.317399
3236.963,0.316851
3253.643,0.319975
3270.495,0.31959
3287.522,0.320299
3304.726,0.320834
3322.11,0.321528
3339.676,0.321098
3357.429,0.320505
3375.37,0.319194
3393.502,0.318699
3411.83,0.318477
3430.355,0.319363
3449.082,0.321523
3468.013,0.32108
3487.152,0.320966
3506.502,0.321127
3526.067,0.323259
3545.851,0.32291
3565.856,0.323087
3586.088,0.323995
3606.549,0.322826
3627.244,0.323325
3648.176,0.324124
3669.351,0.323962
3690.771,0.324057
3712.442,0.324672
3734.368,0.3260316
3756.553,0.327642
3779.001,0.328282
3801.719,0.329436
3824.71,0.330746
3847.98,0.333288
3871.533,0.335843
3895.375,0.338324
3919.512,0.340253
3943.948,0.34322
3968.689,0.347971
3993.742,0.352248
4019.111,0.356293
4044.804,0.360924
4070.825,0.3670198
4097.183,0.374126
4123.882,0.3818751
4150.931,0.39086
4178.335,0.400249
4206.102,0.4259155
4234.24,0.485769
4262.754,0.470742
4291.655,0.495655
4320.948,0.489915
4350.642,0.487138
4380.746,0.497879
4411.268,0.515719
4442.217,0.531387
4473.602,0.544147
4505.431,0.554741
4537.716,0.564385
4570.465,0.575017
4603.688,0.586615
4637.397,0.594998
4671.601,0.605317
4706.312,0.616133
4741.541,0.62818
4777.299,0.64153
4813.6,0.6529
4850.455,0.662197
4887.876,0.671501
4925.878,0.682227
4964.474,0.693353
5003.678,0.701886
5043.504,0.710961
5083.967,0.721788
5125.083,0.729113
5166.868,0.739883
5209.338,0.758909
5252.51,0.765342
5296.401,0.7807957
5341.031,0.793104
5386.417,0.797653
5432.579,0.813144
5479.537,0.840877
5527.312,0.9081874
5575.925,0.619289
5625.399,0.746379
5675.757,0.779473
5727.022,0.802559
5779.22,0.822964
5832.376,0.841968
5886.517,0.865282
5941.67,0.869952
5997.864,0.868847
6055.129,0.884689
6113.495,0.888263
6172.996,0.891762
6233.663,0.896053
6295.533,0.901811
6358.64,0.914935
6423.023,0.924761
6488.721,0.933669
6555.774,0.934594
6624.224,0.945424
6694.117,0.942016
6765.497,0.94804
6838.413,0.951491
6912.916,0.952605
6989.057,0.957746
7066.891,0.962211
7146.475,0.968558
7227.869,0.970601
7311.135,0.975646
7396.34,0.979622
7483.55,0.984068
7572.838,0.9871204
7664.28,0.988676
7757.953,0.99183
7853.942,0.996017
7952.331,0.0100047
8053.214,0.0100508
8156.686,0.0100835
8262.847,0.0101174
8371.804,0.0101534
8483.67,0.010184
8598.562,0.0102084
8716.604,0.0102333
8837.928,0.0102628
8962.673,0.0102874
9090.986,0.0102814
9223.022,0.0102532
9358.945,0.0102444
9498.929,0.0102522
9643.16,0.0102656
9791.834,0.0102808
9945.159,0.0102865
10103.357,0.010288
10266.663,0.0103063
10435.331,0.0103256
10609.627,0.01033423
10789.839,0.0103373
10976.272,0.0103436
11169.256,0.0103433
11369.141,0.0103299
11576.304,0.0103077
11791.15,0.0102988
12014.114,0.0103044
12245.667,0.0103041
12486.313,0.0102923
12736.599,0.0102892
12997.116,0.0103007
13268.505,0.0103135
13551.461,0.0103095
13846.739,0.0102801
14155.163,0.0102692
14477.629,0.0102395
14815.121,0.0102034
15168.712,0.010105
15539.583,0.962417
15929.033,0.819395
15965.407,0.791593