File: csv_library/FTIR_PYX_12.csv
Database of Origin,University of Winnipeg Spectrophotometer Facility
Sample Description,"HOSERLab master pyroxenes, FTIR data"
Date Added,2016-12-14 03:34:49.865

Data ID,FTIR_PYX_12
Sample ID,PYX110
Mineral Name,Orthopyroxene
Grain Size,45-90 um
Viewing Geometry,"i=30, e=0"
Material Class,Inosilicate

Wavelength
2000.56,0.219529
2006.983,0.222747
2013.447,0.226315
2019.952,0.23042
2026.499,0.23424
2033.087,0.238544
2039.718,0.243513
2046.391,0.248176
2053.107,0.25258
2059.867,0.2577
2066.671,0.262525
2073.519,0.267736
2080.412,0.27364
2087.35,0.278959
2094.334,0.284903
2101.364,0.291345
2108.441,0.297213
2115.565,0.30271
2122.736,0.310191
2129.956,0.317054
2137.224,0.32415
2144.541,0.332234
2151.907,0.338705
2159.324,0.34601
2166.791,0.354055
2174.309,0.361387
2181.879,0.368511
2189.501,0.376843
2197.175,0.384508
2204.903,0.39159
2212.685,0.399716
2220.521,0.40717
2228.412,0.4137128
2236.359,0.420876
2244.361,0.42752
2252.421,0.434341
2260.537,0.440779
2268.712,0.445853
2276.945,0.450375
2285.237,0.45172
2293.59,0.458131
2302.002,0.461904
2310.476,0.458977
2319.012,0.471016
2327.61,0.481668
2336.272,0.4898385
2344.997,0.496554
2353.787,0.50253
2362.643,0.50804
2371.564,0.510359
2380.553,0.512222
2389.609,0.515112
2398.733,0.521328
2407.926,0.527273
2417.19,0.5303958
2426.524,0.53238
2435.93,0.534231
2445.408,0.536847
2454.959,0.538053
2464.585,0.539119
2474.285,0.542062
2484.062,0.544174
2493.915,0.544491
2503.845,0.545911
2513.855,0.547475
2523.944,0.548126
2534.113,0.549203
2544.364,0.550871
2554.697,0.551596
2565.113,0.550903
2575.615,0.551674
2586.201,0.552189
2596.874,0.551174
2607.635,0.5522086
2618.485,0.553685
2629.424,0.554546
2640.454,0.553573
2651.576,0.552352
2662.792,0.548724
2674.102,0.53984
2685.507,0.511008
2697.01,0.43529
2708.61,0.347974
2720.31,0.28678
2732.111,0.294358
2744.013,0.298326
2756.019,0.296067
2768.129,0.292463
2780.345,0.292167
2792.669,0.292808
2805.102,0.294004
2817.645,0.2965929
2830.299,0.297305
2843.067,0.291028
2855.95,0.291446
2868.949,0.293392
2882.066,0.291129
2895.303,0.288789
2908.661,0.287763
2922.142,0.28562
2935.747,0.283873
2949.479,0.285704
2963.339,0.284287
2977.328,0.286758
2991.45,0.287756
3005.705,0.290635
3020.096,0.292673
3034.624,0.297398
3049.292,0.2976761
3064.101,0.3001854
3079.054,0.301421
3094.153,0.302621
3109.399,0.304191
3124.795,0.306586
3140.344,0.309386
3156.047,0.312346
3171.907,0.315793
3187.926,0.3186433
3204.106,0.321599
3220.451,0.325511
3236.963,0.326183
3253.643,0.330048
3270.495,0.330413
3287.522,0.332338
3304.726,0.33368
3322.11,0.335358
3339.676,0.336876
3357.429,0.336641
3375.37,0.335124
3393.502,0.336369
3411.83,0.332325
3430.355,0.335235
3449.082,0.340781
3468.013,0.342096
3487.152,0.342771
3506.502,0.341669
3526.067,0.347044
3545.851,0.34819
3565.856,0.348534
3586.088,0.349151
3606.549,0.347015
3627.244,0.347423
3648.176,0.34771
3669.351,0.347044
3690.771,0.346978
3712.442,0.346894
3734.368,0.346917
3756.553,0.346962
3779.001,0.34679
3801.719,0.346477
3824.71,0.347195
3847.98,0.348145
3871.533,0.349785
3895.375,0.351175
3919.512,0.351911
3943.948,0.354096
3968.689,0.357711
3993.742,0.36198
4019.111,0.365639
4044.804,0.36967
4070.825,0.37409
4097.183,0.379865
4123.882,0.38697
4150.931,0.395197
4178.335,0.403299
4206.102,0.429489
4234.24,0.49465
4262.754,0.474211
4291.655,0.498396
4320.948,0.488699
4350.642,0.483264
4380.746,0.49238
4411.268,0.508846
4442.217,0.523692
4473.602,0.534974
4505.431,0.5441
4537.716,0.550706
4570.465,0.556613
4603.688,0.56212
4637.397,0.566353
4671.601,0.575041
4706.312,0.587717
4741.541,0.599334
4777.299,0.61018
4813.6,0.619835
4850.455,0.630368
4887.876,0.641548
4925.878,0.654235
4964.474,0.666031
5003.678,0.674479
5043.504,0.682179
5083.967,0.691714
5125.083,0.698364
5166.868,0.710383
5209.338,0.732463
5252.51,0.739548
5296.401,0.756076
5341.031,0.768933
5386.417,0.772595
5432.579,0.787238
5479.537,0.816924
5527.312,0.890817
5575.925,0.558634
5625.399,0.709203
5675.757,0.7457926
5727.022,0.769686
5779.22,0.793062
5832.376,0.814116
5886.517,0.83773
5941.67,0.842147
5997.864,0.840888
6055.129,0.855662
6113.495,0.861189
6172.996,0.866121
6233.663,0.872041
6295.533,0.878994
6358.64,0.892532
6423.023,0.902265
6488.721,0.911447
6555.774,0.913764
6624.224,0.924184
6694.117,0.9215013
6765.497,0.928275
6838.413,0.932099
6912.916,0.932739
6989.057,0.938584
7066.891,0.943525
7146.475,0.949946
7227.869,0.952349
7311.135,0.957352
7396.34,0.961891
7483.55,0.966626
7572.838,0.969916
7664.28,0.971662
7757.953,0.974752
7853.942,0.97927
7952.331,0.9839
8053.214,0.9882608
8156.686,0.9912622
8262.847,0.994863
8371.804,0.998648
8483.67,0.0100128
8598.562,0.0100332
8716.604,0.0100525
8837.928,0.0100845
8962.673,0.0101157
9090.986,0.0101119
9223.022,0.0100891
9358.945,0.0100837
9498.929,0.0101044
9643.16,0.01012499
9791.834,0.0101337
9945.159,0.0101336
10103.357,0.0101426
10266.663,0.0101678
10435.331,0.0101825
10609.627,0.0101902
10789.839,0.0101897
10976.272,0.0102048
11169.256,0.01021012
11369.141,0.0101942
11576.304,0.0101772
11791.15,0.0101799
12014.114,0.0101973
12245.667,0.0101983
12486.313,0.010189
12736.599,0.0101817
12997.116,0.0101939
13268.505,0.0102179
13551.461,0.0102218
13846.739,0.0101919
14155.163,0.0101864
14477.629,0.0101741
14815.121,0.0101722
15168.712,0.0101171
15539.583,0.975018
15929.033,0.848205
15965.407,0.822789