File: csv_library/FTIR_CLAY_03.csv
Database of Origin,University of Winnipeg Spectrophotometer Facility
Sample Description,See Master Clays in HOSERLab database
Date Added,2016-12-11 20:56:55.133

Data ID,FTIR_CLAY_03
Sample ID,CHM102
Mineral Name,Chamosite
Grain Size,<45 m
Viewing Geometry,35/0
Resolution,11-72 nm
Material Class,Phyllosilicate

Wavelength
2001.142,0.50205
2008.155,0.50436
2015.217,0.50729
2022.328,0.510122
2029.488,0.513239
2036.698,0.515255
2043.959,0.517984
2051.271,0.5198845
2058.635,0.522299
2066.051,0.525111
2073.519,0.526204
2081.041,0.527261
2088.617,0.529587
2096.247,0.531593
2103.932,0.534248
2111.673,0.5364572
2119.471,0.538563
2127.325,0.537679
2135.237,0.538514
2143.207,0.539012
2151.235,0.540131
2159.324,0.539795
2167.472,0.5406798
2175.682,0.5397718
2183.952,0.538494
2192.285,0.537542
2200.682,0.536307
2209.141,0.5335424
2217.665,0.530125
2226.254,0.526799
2234.91,0.521849
2243.631,0.515259
2252.421,0.507352
2261.278,0.501532
2270.204,0.4975383
2279.201,0.491606
2288.268,0.487677
2297.406,0.4838327
2306.617,0.480932
2315.901,0.478743
2325.259,0.475991
2334.692,0.471684
2344.201,0.467692
2353.787,0.465711
2363.451,0.467126
2373.194,0.468892
2383.016,0.471415
2392.919,0.473693
2402.903,0.475208
2412.971,0.475161
2423.122,0.4740523
2433.358,0.472914
2443.679,0.471198
2454.088,0.468136
2464.585,0.464226
2475.171,0.459825
2485.847,0.455444
2496.615,0.452425
2507.476,0.449678
2518.431,0.447717
2529.48,0.446218
2540.627,0.446243
2551.87,0.446597
2563.213,0.447241
2574.656,0.446746
2586.201,0.446037
2597.849,0.443259
2609.601,0.439956
2621.459,0.436844
2633.424,0.431758
2645.498,0.42503
2657.682,0.415223
2669.978,0.406521
2682.387,0.383167
2694.911,0.356086
2707.552,0.31866
2720.31,0.255731
2733.188,0.151624
2746.188,0.08021431
2759.311,0.05103173
2772.559,0.04059232
2785.934,0.03643396
2799.437,0.03412422
2813.071,0.03367194
2826.837,0.03389427
2840.737,0.0341888
2854.774,0.03438696
2868.949,0.03422629
2883.265,0.0332275
2897.723,0.03258071
2912.325,0.03219193
2927.075,0.03146419
2941.973,0.0322858
2957.023,0.03363002
2972.226,0.03380481
2987.586,0.03503343
3003.103,0.03760502
3018.782,0.03921154
3034.624,0.0429595
3050.632,0.04378976
3066.809,0.04614331
3083.157,0.04776755
3099.679,0.05002465
3116.378,0.05144387
3133.257,0.05388156
3150.319,0.05670523
3167.566,0.06012568
3185.001,0.06460068
3202.629,0.06814691
3220.451,0.07468011
3238.472,0.0784575
3256.694,0.08582425
3275.122,0.08968869
3293.757,0.09579589
3312.605,0.1003
3331.669,0.106216
3350.952,0.107847
3370.458,0.109109
3390.191,0.113384
3410.156,0.116811
3430.355,0.123558
3450.794,0.132747
3471.477,0.138168
3492.408,0.143873
3513.592,0.151704
3535.032,0.166978
3556.735,0.176429
3578.704,0.185788
3600.946,0.19465
3623.463,0.203031
3646.263,0.210904
3669.351,0.219315
3692.731,0.228547
3716.409,0.237635
3740.392,0.246406
3764.685,0.253366
3789.294,0.257389
3814.225,0.258823
3839.486,0.260909
3865.081,0.265458
3891.019,0.269264
3917.305,0.272345
3943.948,0.273301
3970.954,0.27226
3998.33,0.278826
4026.086,0.298351
4054.228,0.32409
4082.764,0.346101
4111.703,0.363173
4141.054,0.377616
4170.826,0.390245
4201.026,0.41303
4231.666,0.491678
4262.754,0.47407
4294.301,0.503028
4326.317,0.491062
4358.811,0.4871229
4391.796,0.499552
4425.282,0.5166148
4459.281,0.530041
4493.805,0.541871
4528.865,0.552197
4564.475,0.565046
4600.648,0.5763061
4637.397,0.588368
4674.735,0.601861
4712.678,0.616591
4751.24,0.629657
4790.436,0.643861
4830.283,0.654267
4870.795,0.666359
4911.991,0.676612
4953.888,0.686749
4996.504,0.696056
5039.857,0.705274
5083.967,0.716033
5128.854,0.7245746
5174.538,0.734765
5221.041,0.746138
5268.386,0.754307
5316.595,0.763315
5365.692,0.772792
5415.701,0.785706
5466.65,0.797786
5518.564,0.816738
5571.47,0.862134
5625.399,0.729051
5680.379,0.768708
5736.443,0.7928061
5793.621,0.798845
5851.948,0.812787
5911.459,0.821375
5972.19,0.836103
6034.179,0.845381
6097.466,0.852296
6162.091,0.861582
6228.099,0.870842
6295.533,0.879865
6364.44,0.891829
6434.869,0.899982
6506.872,0.908984
6580.501,0.918289
6655.812,0.921331
6732.864,0.926041
6811.718,0.932952
6892.437,0.937798
6975.089,0.942939
7059.743,0.949357
7146.475,0.955164
7235.36,0.958936
7326.481,0.964669
7419.922,0.968598
7515.774,0.972473
7614.131,0.9763287
7715.093,0.979442
7818.764,0.983371
7925.254,0.987945
8034.682,0.992057
8147.169,0.996044
8262.847,0.999584
8381.852,0.0100298
8504.331,0.0100644
8630.437,0.0100939
8760.335,0.0101249
8894.198,0.0101603
9032.21,0.0101837
9174.568,0.0101838
9321.48,0.0101842
9473.167,0.0101951
9629.868,0.0102005
9791.834,0.01020638
9959.336,0.0102159
10132.662,0.0102289
10312.121,0.01024232
10498.045,0.0102489
10690.79,0.0102496
10890.738,0.0102531
11098.301,0.010257
11313.921,0.0102549
11538.079,0.0102376
11771.29,0.0102339
12014.114,0.0102342
12267.16,0.0102278
12531.086,0.01022895
12806.608,0.0102342
13094.51,0.0102413
13395.644,0.0102502
13710.943,0.0102306
14041.433,0.0102123
14388.237,0.0101791
14752.594,0.0101405
15135.871,0.0100157
15539.583,0.955173
15965.407,0.781683