File: csv_library/FTIR_LNR_3_5.csv
Database of Origin,University of Winnipeg Spectrophotometer Facility
Sample Description,Lunar samples/ analogues and glasses - D and P 102F FTIR spectra (from PSF) NASA Apollo lunar samples
Other Information,diffuse gold puck 100 spectra averaged
Date Added,2018-07-23 21:03:11.4478

Data ID,FTIR_LNR_3_5
Sample ID,apollo 17 ID# 71061 13 5
Grain Size,<1mm?
Viewing Geometry,i=30/ e=0
Resolution,3 cm-1
Composition,regolith sample

Wavelength
2.001142,0.443193
2.008155,0.442624
2.015217,0.442694
2.022328,0.442584
2.029488,0.442515
2.036698,0.443697
2.043959,0.444318
2.051271,0.443937
2.058635,0.444634
2.066051,0.445601
2.073519,0.446392
2.081041,0.447101
2.088617,0.447791
2.096247,0.448404
2.103932,0.448692
2.111673,0.448819
2.119471,0.449564
2.127325,0.451479
2.135237,0.451261
2.143207,0.450941
2.151235,0.452982
2.159324,0.45432
2.167472,0.455009
2.175682,0.455808
2.183952,0.456535
2.192285,0.456938
2.200682,0.458501
2.209141,0.459791
2.217665,0.460291
2.226254,0.460507
2.23491,0.461255
2.243631,0.463446
2.252421,0.463645
2.261278,0.463125
2.270204,0.464271
2.279201,0.464708
2.288268,0.465586
2.297406,0.46576
2.306617,0.468084
2.315901,0.468024
2.325259,0.467287
2.334692,0.469356
2.344201,0.46922
2.353787,0.47008
2.363451,0.470448
2.373194,0.470785
2.383016,0.471448
2.392919,0.472602
2.402903,0.472863
2.412971,0.474077
2.423122,0.474457
2.433358,0.476073
2.443679,0.477375
2.454088,0.477548
2.464585,0.47792
2.475171,0.478921
2.485847,0.479573
2.496615,0.48136
2.507476,0.481495
2.518431,0.483451
2.52948,0.484782
2.540627,0.48534
2.55187,0.490363
2.563213,0.493899
2.574656,0.492218
2.586201,0.492576
2.597849,0.490184
2.609601,0.493115
2.621459,0.49794
2.633424,0.4946
2.645498,0.494675
2.657682,0.493265
2.669978,0.506619
2.682387,0.4919191
2.694911,0.496758
2.707552,0.487959
2.72031,0.495886
2.733188,0.475782
2.746188,0.468986
2.759311,0.461341
2.772559,0.461498
2.785934,0.456341
2.799437,0.452487
2.813071,0.451889
2.826837,0.451341
2.840737,0.449387
2.854774,0.450159
2.868949,0.447677
2.883265,0.44659
2.897723,0.44404
2.912325,0.443481
2.927075,0.442213
2.941973,0.44196
2.957023,0.442029
2.972226,0.442483
2.987586,0.442099
3.003103,0.444244
3.018782,0.445065
3.034624,0.448272
3.050632,0.448566
3.066809,0.450031
3.083157,0.45066
3.099679,0.451887
3.116378,0.451933
3.133257,0.452637
3.150319,0.454676
3.167566,0.45598
3.185001,0.457823
3.202629,0.459746
3.220451,0.462754
3.238472,0.463652
3.256694,0.466778
3.275122,0.466144
3.293757,0.468569
3.312605,0.470136
3.331669,0.473884
3.350952,0.474112
3.370458,0.475717
3.390191,0.478401
3.410156,0.482587
3.430355,0.486286
3.450794,0.485725
3.471477,0.48715
3.492408,0.492325
3.513592,0.494683
3.535032,0.497029
3.556735,0.497647
3.578704,0.500637
3.600946,0.50362
3.623463,0.506532
3.646263,0.509154
3.669351,0.512843
3.692731,0.516023
3.716409,0.519817
3.740392,0.524129
3.764685,0.527144
3.789294,0.531485
3.814225,0.536028
3.839486,0.540266
3.865081,0.543626
3.891019,0.547057
3.917305,0.551448
3.943948,0.556737
3.970954,0.562959
3.99833,0.567594
4.026086,0.572721
4.054228,0.578981
4.082764,0.586359
4.111703,0.594527
4.141054,0.602629
4.170826,0.611259
4.201026,0.62157
4.231666,0.637233
4.262754,0.642123
4.294301,0.653186
4.326317,0.660779
4.358811,0.672106
4.391796,0.682544
4.425282,0.698203
4.459281,0.710403
4.493805,0.720645
4.528865,0.729176
4.564475,0.737603
4.600648,0.746882
4.637397,0.756385
4.674735,0.767497
4.712678,0.782268
4.75124,0.797735
4.790436,0.812547
4.830283,0.824486
4.870795,0.834254
4.911991,0.841039
4.953888,0.84855
4.996504,0.854867
5.039857,0.862207
5.083967,0.870221
5.128854,0.877533
5.174538,0.884291
5.221041,0.893645
5.268386,0.902027
5.316595,0.911036
5.365692,0.919994
5.415701,0.942475
5.46665,0.0106571
5.518564,0.736173
5.57147,0.618271
5.625399,0.714731
5.680379,0.75506
5.736443,0.782612
5.793621,0.803541
5.851948,0.820815
5.911459,0.8408128
5.97219,0.852541
6.034179,0.862963
6.097466,0.867245
6.162091,0.873629
6.228099,0.890563
6.295533,0.904075
6.36444,0.909669
6.434869,0.918741
6.506872,0.931924
6.580501,0.940974
6.655812,0.95403
6.732864,0.961279
6.811718,0.967011
6.892437,0.973847
6.975089,0.983074
7.059743,0.991758
7.146475,0.995739
7.23536,0.0100448
7.326481,0.0101121
7.419922,0.010196
7.515774,0.0102664
7.614131,0.0103367
7.715093,0.0103975
7.818764,0.010467
7.925254,0.0105193
8.034682,0.0106294
8.147169,0.0107119
8.262847,0.010797
8.381852,0.0108548
8.504331,0.0109298
8.630437,0.010984
8.760335,0.0110273
8.894198,0.0110476
9.03221,0.0110762
9.174568,0.0110808
9.32148,0.0111022
9.473167,0.011115
9.629868,0.0111164
9.791834,0.0111283
9.959336,0.0111561
10.1327,0.0111603
10.3121,0.011151
10.498,0.011135
10.69079,0.011118
10.8907,0.0111009
11.0983,0.0110642
11.3139,0.0110165
11.5381,0.0109806
11.77129,0.0109178
12.0141,0.0108688
12.26716,0.0108062
12.5311,0.0107931
12.8066,0.0108135
13.09451,0.0107748
13.3956,0.0107132
13.7109,0.0106264
14.0414,0.0105274
14.3882,0.0103853
14.7526,0.0100691
15.1359,0.92315
15.5396,0.70651
15.9654,0.4100135