File: csv_library/FTIR_CLAY_09.csv
Database of Origin,University of Winnipeg Spectrophotometer Facility
Sample Description,See Master Clays in HOSERLab database
Date Added,2016-12-11 20:56:55.2618

Data ID,FTIR_CLAY_09
Sample ID,KAO101
Mineral Name,Kaolinite
Grain Size,<45 m
Viewing Geometry,35/0
Resolution,11-72 nm
Material Class,Phyllosilicate

Wavelength
2001.142,0.446917
2008.155,0.447531
2015.217,0.449529
2022.328,0.450385
2029.488,0.450335
2036.698,0.451479
2043.959,0.450846
2051.271,0.450925
2058.635,0.449566
2066.051,0.447196
2073.519,0.444265
2081.041,0.440747
2088.617,0.438355
2096.247,0.436841
2103.932,0.434815
2111.673,0.426843
2119.471,0.427018
2127.325,0.420949
2135.237,0.409403
2143.207,0.383028
2151.235,0.349258
2159.324,0.334485
2167.472,0.339395
2175.682,0.345966
2183.952,0.342074
2192.285,0.326148
2200.682,0.307362
2209.141,0.276708
2217.665,0.370572
2226.254,0.392832
2234.91,0.3935176
2243.631,0.393305
2252.421,0.39417
2261.278,0.389749
2270.204,0.384199
2279.201,0.376534
2288.268,0.370011
2297.406,0.364711
2306.617,0.35429
2315.901,0.346932
2325.259,0.3441733
2334.692,0.348645
2344.201,0.342186
2353.787,0.331491
2363.451,0.331373
2373.194,0.323148
2383.016,0.312075
2392.919,0.3210433
2402.903,0.32858
2412.971,0.325249
2423.122,0.317709
2433.358,0.30513
2443.679,0.293575
2454.088,0.287474
2464.585,0.284301
2475.171,0.279424
2485.847,0.268935
2496.615,0.265712
2507.476,0.262261
2518.431,0.258587
2529.48,0.255864
2540.627,0.251915
2551.87,0.25055
2563.213,0.252114
2574.656,0.245309
2586.201,0.245222
2597.849,0.239158
2609.601,0.233277
2621.459,0.226789
2633.424,0.213751
2645.498,0.19354
2657.682,0.1723567
2669.978,0.154196
2682.387,0.101045
2694.911,0.06849318
2707.552,0.04855057
2720.31,0.05223731
2733.188,0.03245496
2746.188,0.02809395
2759.311,0.01931525
2772.559,0.03605024
2785.934,0.04304149
2799.437,0.04500467
2813.071,0.0450645
2826.837,0.04393493
2840.737,0.04481428
2854.774,0.04436719
2868.949,0.04422026
2883.265,0.04357108
2897.723,0.04207309
2912.325,0.03986879
2927.075,0.04269802
2941.973,0.04425012
2957.023,0.04680755
2972.226,0.04701455
2987.586,0.04892921
3003.103,0.05286984
3018.782,0.05451851
3034.624,0.06074133
3050.632,0.05974684
3066.809,0.06442949
3083.157,0.06525975
3099.679,0.06838298
3116.378,0.07051424
3133.257,0.07388924
3150.319,0.07856487
3167.566,0.0836408
3185.001,0.09054727
3202.629,0.09592866
3220.451,0.105139
3238.472,0.108495
3256.694,0.118066
3275.122,0.1209973
3293.757,0.128979
3312.605,0.134448
3331.669,0.144156
3350.952,0.1476
3370.458,0.147723
3390.191,0.154008
3410.156,0.156855
3430.355,0.167221
3450.794,0.180026
3471.477,0.18569
3492.408,0.191562
3513.592,0.1972106
3535.032,0.2134894
3556.735,0.2195339
3578.704,0.226899
3600.946,0.233832
3623.463,0.239703
3646.263,0.2459055
3669.351,0.249542
3692.731,0.247947
3716.409,0.257976
3740.392,0.267014
3764.685,0.274202
3789.294,0.27915
3814.225,0.283797
3839.486,0.287619
3865.081,0.291449
3891.019,0.295441
3917.305,0.298921
3943.948,0.3017029
3970.954,0.305171
3998.33,0.308876
4026.086,0.310897
4054.228,0.313502
4082.764,0.315891
4111.703,0.318237
4141.054,0.321083
4170.826,0.324891
4201.026,0.337952
4231.666,0.402202
4262.754,0.3799876
4294.301,0.397093
4326.317,0.377616
4358.811,0.367418
4391.796,0.3706888
4425.282,0.3789389
4459.281,0.385563
4493.805,0.391682
4528.865,0.400909
4564.475,0.408561
4600.648,0.4131526
4637.397,0.415902
4674.735,0.422772
4712.678,0.4344223
4751.24,0.446568
4790.436,0.456588
4830.283,0.462673
4870.795,0.469188
4911.991,0.476735
4953.888,0.487754
4996.504,0.490722
5039.857,0.496704
5083.967,0.5043163
5128.854,0.50436
5174.538,0.514249
5221.041,0.533299
5268.386,0.54535
5316.595,0.55694
5365.692,0.57122
5415.701,0.599816
5466.65,0.6156695
5518.564,0.61475
5571.47,0.572788
5625.399,0.60268
5680.379,0.627161
5736.443,0.651089
5793.621,0.649087
5851.948,0.677891
5911.459,0.687821
5972.19,0.715522
6034.179,0.721551
6097.466,0.72689
6162.091,0.737275
6228.099,0.7336
6295.533,0.740076
6364.44,0.7706152
6434.869,0.783809
6506.872,0.801843
6580.501,0.82563
6655.812,0.806852
6732.864,0.8061755
6811.718,0.81734
6892.437,0.8226364
6975.089,0.831328
7059.743,0.838204
7146.475,0.854353
7235.36,0.848451
7326.481,0.865016
7419.922,0.862771
7515.774,0.87017
7614.131,0.878466
7715.093,0.883101
7818.764,0.889297
7925.254,0.897527
8034.682,0.903759
8147.169,0.910148
8262.847,0.915015
8381.852,0.920234
8504.331,0.925058
8630.437,0.9295809
8760.335,0.933969
8894.198,0.9382
9032.21,0.941196
9174.568,0.942569
9321.48,0.942889
9473.167,0.944366
9629.868,0.947153
9791.834,0.9492661
9959.336,0.951735
10132.662,0.954716
10312.121,0.957389
10498.045,0.959222
10690.79,0.960264
10890.738,0.961355
11098.301,0.961898
11313.921,0.962828
11538.079,0.963555
11771.29,0.964441
12014.114,0.965541
12267.16,0.965512
12531.086,0.966389
12806.608,0.967256
13094.51,0.96795
13395.644,0.968512
13710.943,0.96834
14041.433,0.966341
14388.237,0.962145
14752.594,0.948741
15135.871,0.908047
15539.583,0.769297
15965.407,0.532447