File: csv_library/FTIR_PLG_06.csv
Database of Origin,University of Winnipeg Spectrophotometer Facility
Sample Description,IR Reflectance spectra of plagioclase with a Bruker Vertex 70 FTIR. See Master Plagioclase in PSF database for additional info.
Date Added,2016-11-22 04:00:06.352483

Data ID,FTIR_PLG_06
Sample ID,PLG114
Mineral Name,Plagioclase
Grain Size,<45 um
Viewing Geometry,"i30, e0"
Resolution,7.71cm-1
Material Class,Tectosilicate

Wavelength
1670.16,0.5528
1676.64,0.55224
1683.18,0.55318
1689.76,0.55229
1696.39,0.55243
1703.08,0.55154
1709.82,0.55154
1716.62,0.55206
1723.46,0.5507
1730.37,0.5509
1737.33,0.55208
1744.34,0.55154
1751.41,0.55124
1758.54,0.55144
1765.73,0.55126
1772.98,0.55097
1780.28,0.55129
1787.65,0.55089
1795.08,0.5507
1802.57,0.55098
1810.12,0.55185
1817.73,0.55316
1825.42,0.5541
1833.16,0.55525
1840.97,0.55784
1848.85,0.55704
1856.8,0.55498
1864.81,0.5533
1872.9,0.55922
1881.05,0.54899
1889.28,0.54805
1897.58,0.54557
1905.95,0.5428
1914.39,0.5385
1922.92,0.5387
1931.51,0.53699
1940.19,0.5375
1948.94,0.53686
1957.77,0.53729
1966.68,0.5379
1975.68,0.53785
1984.76,0.53849
1993.92,0.53906
2003.16,0.53913
2012.49,0.53981
2021.91,0.54102
2031.42,0.54138
2041.02,0.54242
2050.7,0.54176
2060.48,0.54257
2070.36,0.54273
2080.33,0.54235
2090.4,0.54265
2100.56,0.54255
2110.82,0.54201
2121.19,0.54194
2131.65,0.54154
2142.22,0.54076
2152.9,0.53909
2163.68,0.53704
2174.57,0.53333
2185.57,0.52997
2196.69,0.5279
2207.91,0.52959
2219.26,0.53003
2230.71,0.52737
2242.29,0.52324
2253.99,0.52007
2265.813,0.51959
2277.76,0.51991
2289.83,0.51692
2302.03,0.51498
2314.37,0.51145
2326.83,0.50205
2339.43,0.49646
2352.17,0.49418
2365.05,0.49735
2378.06,0.50431
2391.23,0.50653
2404.54,0.50881
2417.99,0.50881
2431.6,0.50682
2445.37,0.5051
2459.29,0.502
2473.37,0.50041
2487.61,0.50124
2502.02,0.50029
2516.59,0.50021
2531.34,0.50163
2546.26,0.50383
2561.35,0.5086
2576.63,0.51169
2592.09,0.51757
2607.74,0.51693
2623.57,0.51057
2639.6,0.49577
2655.83,0.49857
2672.26,0.50814
2688.89,0.46152
2705.73,0.38968
2722.78,0.29199
2740.05,0.22999
2757.54,0.21173
2775.26,0.2183
2793.2,0.20723
2811.38,0.19765
2829.79,0.19309
2848.45,0.18392
2867.36,0.16586
2886.51,0.17893
2905.93,0.18496
2925.61,0.18071
2945.56,0.18204
2965.78,0.18594
2986.28,0.18739
3007.07,0.18951
3028.14,0.1974
3049.52,0.20541
3071.2,0.21176
3093.19,0.21564
3115.49,0.21702
3138.12,0.21921
3161.09,0.22569
3184.39,0.23703
3208.03,0.25067
3232.03,0.26281
3256.39,0.27442
3281.13,0.28519
3306.24,0.29502
3331.74,0.30382
3357.63,0.3093
3383.93,0.31341
3410.64,0.31402
3437.79,0.33118
3465.36,0.34557
3493.38,0.34977
3521.86,0.36635
3550.81,0.37919
3580.23,0.38762
3610.15,0.39477
3640.58,0.40087
3671.52,0.40709
3702.99,0.41272
3735,0.4179
3767.57,0.42344
3800.72,0.42753
3834.45,0.42996
3868.79,0.43263
3903.75,0.43484
3939.35,0.43598
3975.6,0.43457
4012.52,0.43629
4050.14,0.43693
4088.47,0.43637
4127.53,0.4345
4167.35,0.43193
4207.94,0.45167
4249.33,0.46787
4291.54,0.45266
4334.6,0.4118
4378.53,0.39576
4423.36,0.38599
4469.12,0.37648
4515.84,0.37373
4563.54,0.36272
4612.26,0.34065
4662.03,0.33082
4712.89,0.32794
4764.87,0.31823
4818.01,0.31002
4872.35,0.30252
4927.93,0.29208
4984.79,0.28254
5042.98,0.26838
5102.54,0.25737
5163.53,0.24349
5225.99,0.23164
5289.98,0.21734
5355.56,0.20491
5422.78,0.19056
5491.72,0.18694
5562.43,0.19315
5634.98,0.19045
5709.45,0.17884
5785.92,0.16274
5864.46,0.14964
5945.16,0.12822
6028.12,0.11085
6113.42,0.10778
6201.17,0.1082
6291.48,0.10689
6384.46,0.11215
6480.23,0.11338
6578.91,0.11073
6680.64,0.10337
6785.58,0.09683
6893.86,0.08937
7005.65,0.08356
7121.13,0.07578
7240.48,0.06529
7363.89,0.05497
7491.59,0.04354
7623.79,0.03196
7760.75,0.02065
7902.71,0.01131
8049.97,0.00565
8202.82,0.00604
8361.58,0.01503
8526.61,0.02506
8698.29,0.0277
8877.02,0.02484
9063.25,0.02208
9257.46,0.01654
9460.18,0.01777
9671.98,0.02736
9893.47,0.02655
10125.4,0.02904
10368.4,0.03477
10623.3,0.04162
10891.1,0.04143
11172.8,0.0398
11469.4,0.04117
11782.2,0.05038
12112.6,0.05439
12462,0.04471
12832.1,0.02188
13224.9,0.01927
13642.6,0.01801
14087.4,0.01854
14562.3,0.0131
15070.3,0.01589
15615,0.02489
16200.6,0.02604
16831.8,0.03211
17514.1,0.03298
18254.2,0.03097
19059.5,0.03271
19939.2,0.02919
20904,0.02218
21966.9,0.02646
23143.7,0.02392
24453.7,0.00975
25412.6,0.06728