File: csv_library/FTIR_CARB_39_4.csv
Database of Origin,University of Winnipeg Spectrophotometer Facility
Sample Description,Carbonates and Oxolates -  D&P Spectra Reflectance spectra
Other Information,in air no window
Date Added,2018-08-06 21:06:09.562808

Data ID,FTIR_CARB_39_4
Sample ID,CRB114
Mineral Name,Magnesite
Locality,Currant Creek/ Nevada/ USA
Grain Size,<45 um
Viewing Geometry,35/0
Resolution,~3 cm-1
Formula,Mg(CO3)
Composition,Magnesite plus other stuff- probably huntite; some broad and low angle peaks.

Wavelength
2.001142,0.352532
2.008155,0.356138
2.015217,0.359898
2.022328,0.3632914
2.029488,0.365526
2.036698,0.368186
2.043959,0.3715292
2.051271,0.374498
2.058635,0.375915
2.066051,0.377773
2.073519,0.377321
2.081041,0.376134
2.088617,0.375025
2.096247,0.376774
2.103932,0.381411
2.111673,0.384805
2.119471,0.383825
2.127325,0.384149
2.135237,0.387386
2.143207,0.390045
2.151235,0.391667
2.159324,0.391636
2.167472,0.391986
2.175682,0.390393
2.183952,0.389348
2.192285,0.389282
2.200682,0.3878842
2.209141,0.386238
2.217665,0.383703
2.226254,0.378387
2.23491,0.3725298
2.243631,0.367541
2.252421,0.362516
2.261278,0.356029
2.270204,0.350015
2.279201,0.345016
2.288268,0.337258
2.297406,0.330298
2.306617,0.316108
2.315901,0.296267
2.325259,0.294586
2.334692,0.298709
2.344201,0.317932
2.353787,0.3354453
2.363451,0.3362407
2.373194,0.326369
2.383016,0.318451
2.392919,0.317925
2.402903,0.316126
2.412971,0.315773
2.423122,0.306997
2.433358,0.303411
2.443679,0.3013546
2.454088,0.2989702
2.464585,0.296473
2.475171,0.289923
2.485847,0.283726
2.496615,0.276274
2.507476,0.274044
2.518431,0.275823
2.52948,0.279206
2.540627,0.281291
2.55187,0.280585
2.563213,0.28313
2.574656,0.2836635
2.586201,0.285469
2.597849,0.283779
2.609601,0.282652
2.621459,0.280092
2.633424,0.2738217
2.645498,0.2614077
2.657682,0.245325
2.669978,0.231689
2.682387,0.151199
2.694911,0.07281182
2.707552,0.04794038
2.72031,0.05411071
2.733188,0.03907038
2.746188,0.03147899
2.759311,0.03269026
2.772559,0.0314331
2.785934,0.02925454
2.799437,0.02627512
2.813071,0.02439324
2.826837,0.02316789
2.840737,0.02109679
2.854774,0.01910523
2.868949,0.01803214
2.883265,0.0165444
2.897723,0.01598714
2.912325,0.01593368
2.927075,0.01552322
2.941973,0.01554483
2.957023,0.01623577
2.972226,0.01569754
2.987586,0.01501757
3.003103,0.01616009
3.018782,0.01595988
3.034624,0.01851825
3.050632,0.01719553
3.066809,0.01923846
3.083157,0.01849415
3.099679,0.01964178
3.116378,0.01945436
3.133257,0.02027722
3.150319,0.02188269
3.167566,0.02398727
3.185001,0.02759234
3.202629,0.02927873
3.220451,0.03517974
3.238472,0.03598359
3.256694,0.04264844
3.275122,0.04245966
3.293757,0.04793585
3.312605,0.05059787
3.331669,0.05683404
3.350952,0.05828435
3.370458,0.0598177
3.390191,0.06282501
3.410156,0.06619558
3.430355,0.07076005
3.450794,0.07901177
3.471477,0.08511815
3.492408,0.0951442
3.513592,0.103977
3.535032,0.118594
3.556735,0.125311
3.578704,0.1334
3.600946,0.141872
3.623463,0.148181
3.646263,0.154036
3.669351,0.158725
3.692731,0.163241
3.716409,0.168833
3.740392,0.170562
3.764685,0.169225
3.789294,0.165765
3.814225,0.165006
3.839486,0.16317
3.865081,0.160627
3.891019,0.159745
3.917305,0.153721
3.943948,0.147731
3.970954,0.162057
3.99833,0.19059
4.026086,0.211664
4.054228,0.226416
4.082764,0.233575
4.111703,0.238073
4.141054,0.242462
4.170826,0.247706
4.201026,0.259307
4.231666,0.314383
4.262754,0.297182
4.294301,0.313181
4.326317,0.298445
4.358811,0.290744
4.391796,0.2949357
4.425282,0.303537
4.459281,0.31208
4.493805,0.320613
4.528865,0.329302
4.564475,0.338005
4.600648,0.347512
4.637397,0.358513
4.674735,0.369859
4.712678,0.381019
4.75124,0.392436
4.790436,0.40568
4.830283,0.417782
4.870795,0.428966
4.911991,0.439971
4.953888,0.454065
4.996504,0.461217
5.039857,0.471063
5.083967,0.487789
5.128854,0.495121
5.174538,0.5053055
5.221041,0.519311
5.268386,0.524589
5.316595,0.531622
5.365692,0.543023
5.415701,0.5694115
5.46665,0.581176
5.518564,0.554761
5.57147,0.481664
5.625399,0.622905
5.680379,0.6283
5.736443,0.640123
5.793621,0.625978
5.851948,0.65164
5.911459,0.6568049
5.97219,0.688969
6.034179,0.69568
6.097466,0.698481
6.162091,0.711721
6.228099,0.706963
6.295533,0.712686
6.36444,0.745757
6.434869,0.757832
6.506872,0.778151
6.580501,0.805259
6.655812,0.780207
6.732864,0.776652
6.811718,0.788379
6.892437,0.79314
6.975089,0.803817
7.059743,0.8106601
7.146475,0.828918
7.23536,0.822104
7.326481,0.840772
7.419922,0.83753
7.515774,0.845237
7.614131,0.854032
7.715093,0.858854
7.818764,0.864181
7.925254,0.871863
8.034682,0.875998
8.147169,0.881003
8.262847,0.884874
8.381852,0.889017
8.504331,0.892535
8.630437,0.895601
8.760335,0.899276
8.894198,0.903294
9.03221,0.906155
9.174568,0.907281
9.32148,0.907713
9.473167,0.910154
9.629868,0.913088
9.791834,0.915706
9.959336,0.917916
10.1327,0.920872
10.3121,0.923989
10.498,0.926381
10.69079,0.928792
10.8907,0.930117
11.0983,0.930799
11.3139,0.931544
11.5381,0.933353
11.77129,0.936298
12.0141,0.938757
12.26716,0.939477
12.5311,0.940902
12.8066,0.941727
13.09451,0.943798
13.3956,0.945012
13.7109,0.946412
14.0414,0.947756
14.3882,0.9492856
14.7526,0.945684
15.1359,0.931471
15.5396,0.881397
15.9654,0.704704