File: csv_library/FTIR_PLG_01.csv
Database of Origin,University of Winnipeg Spectrophotometer Facility
Sample Description,IR Reflectance spectra of plagioclase with a Bruker Vertex 70 FTIR. See Master Plagioclase in PSF database for additional info.
Date Added,2016-11-22 04:00:06.256403

Data ID,FTIR_PLG_01
Sample ID,PLG106
Mineral Name,Plagioclase
Grain Size,<45 um
Viewing Geometry,"i30, e0"
Resolution,7.71cm-1
Material Class,Tectosilicate

Wavelength
1670.16,0.55635
1676.64,0.55548
1683.18,0.55545
1689.76,0.55514
1696.39,0.55504
1703.08,0.55508
1709.82,0.55406
1716.62,0.5549
1723.46,0.55405
1730.37,0.5539
1737.33,0.55377
1744.34,0.55295
1751.41,0.55371
1758.54,0.55277
1765.73,0.55239
1772.98,0.55187
1780.28,0.55099
1787.65,0.55124
1795.08,0.55102
1802.57,0.55111
1810.12,0.55163
1817.73,0.553
1825.42,0.55348
1833.16,0.5548
1840.97,0.5572
1848.85,0.55512
1856.8,0.55368
1864.81,0.54993
1872.9,0.55649
1881.05,0.54428
1889.28,0.54378
1897.58,0.54362
1905.95,0.54308
1914.39,0.53848
1922.92,0.53583
1931.51,0.53222
1940.19,0.53115
1948.94,0.52971
1957.77,0.52863
1966.68,0.52684
1975.68,0.52592
1984.76,0.52455
1993.92,0.52327
2003.16,0.52222
2012.49,0.52104
2021.91,0.5197
2031.42,0.51819
2041.02,0.51681
2050.7,0.51437
2060.48,0.51324
2070.36,0.51057
2080.33,0.5088
2090.4,0.50753
2100.56,0.50523
2110.82,0.50329
2121.19,0.50133
2131.65,0.49916
2142.22,0.49703
2152.9,0.49459
2163.68,0.49285
2174.57,0.49004
2185.57,0.48811
2196.69,0.48606
2207.91,0.48437
2219.26,0.4823
2230.71,0.48022
2242.29,0.47836
2253.99,0.4766
2265.813,0.47475
2277.76,0.47197
2289.83,0.46656
2302.03,0.46472
2314.37,0.4599
2326.83,0.46565
2339.43,0.4679
2352.17,0.46797
2365.05,0.46849
2378.06,0.46704
2391.23,0.4668
2404.54,0.47003
2417.99,0.4716
2431.6,0.47284
2445.37,0.47444
2459.29,0.47627
2473.37,0.47872
2487.61,0.4829
2502.02,0.48564
2516.59,0.48963
2531.34,0.49606
2546.26,0.50393
2561.35,0.51532
2576.63,0.52397
2592.09,0.53612
2607.74,0.54117
2623.57,0.53733
2639.6,0.52308
2655.83,0.53294
2672.26,0.55526
2688.89,0.50718
2705.73,0.44919
2722.78,0.36495
2740.05,0.38511
2757.54,0.36471
2775.26,0.34387
2793.2,0.33324
2811.38,0.33214
2829.79,0.32774
2848.45,0.3223
2867.36,0.31713
2886.51,0.31223
2905.93,0.31037
2925.61,0.30761
2945.56,0.30754
2965.78,0.3082
2986.28,0.31121
3007.07,0.31613
3028.14,0.32034
3049.52,0.32443
3071.2,0.32776
3093.19,0.33176
3115.49,0.33773
3138.12,0.34423
3161.09,0.35154
3184.39,0.35915
3208.03,0.36701
3232.03,0.37373
3256.39,0.38013
3281.13,0.38524
3306.24,0.38869
3331.74,0.38747
3357.63,0.37879
3383.93,0.37848
3410.64,0.37631
3437.79,0.38788
3465.36,0.39034
3493.38,0.39039
3521.86,0.41406
3550.81,0.43206
3580.23,0.43927
3610.15,0.44468
3640.58,0.44895
3671.52,0.45275
3702.99,0.45619
3735,0.45827
3767.57,0.45966
3800.72,0.45388
3834.45,0.4422
3868.79,0.43646
3903.75,0.43307
3939.35,0.41811
3975.6,0.39354
4012.52,0.42424
4050.14,0.45327
4088.47,0.46055
4127.53,0.46124
4167.35,0.46029
4207.94,0.47938
4249.33,0.49621
4291.54,0.48885
4334.6,0.45758
4378.53,0.44784
4423.36,0.44471
4469.12,0.43887
4515.84,0.42683
4563.54,0.40289
4612.26,0.37731
4662.03,0.35549
4712.89,0.32982
4764.87,0.30664
4818.01,0.28853
4872.35,0.26531
4927.93,0.25421
4984.79,0.24621
5042.98,0.2144
5102.54,0.21732
5163.53,0.25351
5225.99,0.26726
5289.98,0.26412
5355.56,0.27284
5422.78,0.29043
5491.72,0.31509
5562.43,0.30142
5634.98,0.32823
5709.45,0.3228
5785.92,0.29533
5864.46,0.27364
5945.16,0.22513
6028.12,0.17065
6113.42,0.15685
6201.17,0.16122
6291.48,0.14849
6384.46,0.13651
6480.23,0.11333
6578.91,0.10113
6680.64,0.08551
6785.58,0.07947
6893.86,0.0804
7005.65,0.08432
7121.13,0.08835
7240.48,0.09803
7363.89,0.11167
7491.59,0.10721
7623.79,0.09598
7760.75,0.07955
7902.71,0.06346
8049.97,0.04458
8202.82,0.03081
8361.58,0.02093
8526.61,0.0189
8698.29,0.03421
8877.02,0.06049
9063.25,0.05589
9257.46,0.05028
9460.18,0.0354
9671.98,0.02406
9893.47,0.02492
10125.4,0.0282
10368.4,0.05217
10623.3,0.05423
10891.1,0.05828
11172.8,0.05925
11469.4,0.05831
11782.2,0.05313
12112.6,0.06006
12462,0.07036
12832.1,0.07473
13224.9,0.07414
13642.6,0.06968
14087.4,0.04626
14562.3,0.0241
15070.3,0.01749
15615,0.015
16200.6,0.01754
16831.8,0.02783
17514.1,0.05684
18254.2,0.05848
19059.5,0.05304
19939.2,0.05561
20904,0.05998
21966.9,0.05378
23143.7,0.04803
24453.7,0.04855
25412.6,0.05756