File: csv_library/FTIR_LNR_3_12.csv
Database of Origin,University of Winnipeg Spectrophotometer Facility
Sample Description,Lunar samples/ analogues and glasses - D and P 102F FTIR spectra (from PSF) NASA Apollo lunar samples
Other Information,diffuse gold puck 100 spectra averaged
Date Added,2018-07-23 21:03:11.6731

Data ID,FTIR_LNR_3_12
Sample ID,apollo 16  ID# 64801 176 4
Grain Size,<1mm?
Viewing Geometry,i=30/ e=0
Resolution,3 cm-1
Composition,regolith sample

Wavelength
2.001142,0.385394
2.008155,0.385447
2.015217,0.385353
2.022328,0.385339
2.029488,0.38487
2.036698,0.385465
2.043959,0.385857
2.051271,0.385801
2.058635,0.386821
2.066051,0.387457
2.073519,0.387902
2.081041,0.387963
2.088617,0.38826
2.096247,0.389727
2.103932,0.389986
2.111673,0.390218
2.119471,0.390047
2.127325,0.392286
2.135237,0.392592
2.143207,0.393339
2.151235,0.392853
2.159324,0.394155
2.167472,0.395432
2.175682,0.396196
2.183952,0.396449
2.192285,0.397208
2.200682,0.399349
2.209141,0.400007
2.217665,0.401481
2.226254,0.401836
2.23491,0.403298
2.243631,0.404873
2.252421,0.405088
2.261278,0.405023
2.270204,0.406342
2.279201,0.407316
2.288268,0.408529
2.297406,0.408156
2.306617,0.410088
2.315901,0.410164
2.325259,0.411296
2.334692,0.411502
2.344201,0.412566
2.353787,0.413675
2.363451,0.413064
2.373194,0.413246
2.383016,0.414128
2.392919,0.414523
2.402903,0.415447
2.412971,0.41551
2.423122,0.416574
2.433358,0.417769
2.443679,0.419877
2.454088,0.418227
2.464585,0.419742
2.475171,0.420846
2.485847,0.421928
2.496615,0.423256
2.507476,0.424055
2.518431,0.426361
2.52948,0.426336
2.540627,0.428111
2.55187,0.432328
2.563213,0.434421
2.574656,0.43313
2.586201,0.433599
2.597849,0.430953
2.609601,0.434489
2.621459,0.438445
2.633424,0.435487
2.645498,0.436357
2.657682,0.434592
2.669978,0.448799
2.682387,0.433594
2.694911,0.437728
2.707552,0.429078
2.72031,0.432945
2.733188,0.411681
2.746188,0.402817
2.759311,0.393652
2.772559,0.391155
2.785934,0.386246
2.799437,0.382096
2.813071,0.3806
2.826837,0.381019
2.840737,0.379359
2.854774,0.379513
2.868949,0.379405
2.883265,0.378087
2.897723,0.378589
2.912325,0.378877
2.927075,0.378278
2.941973,0.379173
2.957023,0.381135
2.972226,0.380516
2.987586,0.381339
3.003103,0.385192
3.018782,0.385139
3.034624,0.390418
3.050632,0.389383
3.066809,0.393033
3.083157,0.393838
3.099679,0.395705
3.116378,0.396466
3.133257,0.397467
3.150319,0.399437
3.167566,0.40118
3.185001,0.403678
3.202629,0.406063
3.220451,0.410753
3.238472,0.411597
3.256694,0.416957
3.275122,0.415367
3.293757,0.418469
3.312605,0.420086
3.331669,0.424708
3.350952,0.426445
3.370458,0.429883
3.390191,0.43276
3.410156,0.439442
3.430355,0.442982
3.450794,0.443617
3.471477,0.446408
3.492408,0.453565
3.513592,0.45612
3.535032,0.459827
3.556735,0.461602
3.578704,0.466123
3.600946,0.470745
3.623463,0.475594
3.646263,0.480498
3.669351,0.486516
3.692731,0.492654
3.716409,0.499622
3.740392,0.506121
3.764685,0.51279
3.789294,0.5204161
3.814225,0.527766
3.839486,0.53484
3.865081,0.540818
3.891019,0.547895
3.917305,0.555747
3.943948,0.5637
3.970954,0.573789
3.99833,0.581989
4.026086,0.590395
4.054228,0.600955
4.082764,0.611554
4.111703,0.624883
4.141054,0.638477
4.170826,0.652965
4.201026,0.66878
4.231666,0.692352
4.262754,0.70408
4.294301,0.722276
4.326317,0.738457
4.358811,0.756905
4.391796,0.776358
4.425282,0.799382
4.459281,0.818247
4.493805,0.83348
4.528865,0.846884
4.564475,0.860309
4.600648,0.875753
4.637397,0.890109
4.674735,0.907551
4.712678,0.927643
4.75124,0.948899
4.790436,0.967601
4.830283,0.982155
4.870795,0.994174
4.911991,0.0100345
4.953888,0.0101246
4.996504,0.0102128
5.039857,0.0103073
5.083967,0.0104047
5.128854,0.0104978
5.174538,0.0105791
5.221041,0.0106866
5.268386,0.0107915
5.316595,0.0108998
5.365692,0.011039
5.415701,0.0113946
5.46665,0.0130389
5.518564,0.813947
5.57147,0.715914
5.625399,0.843538
5.680379,0.896593
5.736443,0.93094
5.793621,0.955701
5.851948,0.974559
5.911459,0.997658
5.97219,0.0100926
6.034179,0.0102253
6.097466,0.0102232
6.162091,0.0102569
6.228099,0.0104274
6.295533,0.0105544
6.36444,0.0105772
6.434869,0.0106603
6.506872,0.0108067
6.580501,0.010864
6.655812,0.0110445
6.732864,0.011109
6.811718,0.0111609
6.892437,0.011216
6.975089,0.0113289
7.059743,0.0114072
7.146475,0.0114225
7.23536,0.0115003
7.326481,0.0115584
7.419922,0.0116495
7.515774,0.0117181
7.614131,0.0117772
7.715093,0.0118374
7.818764,0.0119089
7.925254,0.0119536
8.034682,0.0120665
8.147169,0.0121648
8.262847,0.012259
8.381852,0.0123122
8.504331,0.0123854
8.630437,0.012428
8.760335,0.0124621
8.894198,0.0124743
9.03221,0.012507
9.174568,0.0125037
9.32148,0.0125337
9.473167,0.012537
9.629868,0.0125156
9.791834,0.0125007
9.959336,0.0124995
10.1327,0.0124705
10.3121,0.0124254
10.498,0.0123872
10.69079,0.0123553
10.8907,0.0123331
11.0983,0.0123006
11.3139,0.0122513
11.5381,0.0121946
11.77129,0.0121204
12.0141,0.0120302
12.26716,0.0119584
12.5311,0.0119048
12.8066,0.0118996
13.09451,0.0118175
13.3956,0.0117218
13.7109,0.0115899
14.0414,0.0114431
14.3882,0.0112352
14.7526,0.0108125
15.1359,0.976406
15.5396,0.729564
15.9654,0.403298