File: csv_library/FTIR_PLG_02.csv
Database of Origin,University of Winnipeg Spectrophotometer Facility
Sample Description,IR Reflectance spectra of plagioclase with a Bruker Vertex 70 FTIR. See Master Plagioclase in PSF database for additional info.
Date Added,2016-11-22 04:00:06.277792

Data ID,FTIR_PLG_02
Sample ID,PLG103
Mineral Name,Plagioclase
Grain Size,<45 um
Viewing Geometry,"i30, e0"
Resolution,7.71cm-1
Material Class,Tectosilicate

Wavelength
1670.16,0.52384
1676.64,0.52359
1683.18,0.52372
1689.76,0.52353
1696.39,0.52316
1703.08,0.52256
1709.82,0.5224
1716.62,0.52302
1723.46,0.52243
1730.37,0.52246
1737.33,0.52237
1744.34,0.52234
1751.41,0.522
1758.54,0.52129
1765.73,0.52153
1772.98,0.5218
1780.28,0.52078
1787.65,0.52101
1795.08,0.5211
1802.57,0.52126
1810.12,0.52179
1817.73,0.52286
1825.42,0.52268
1833.16,0.52422
1840.97,0.5252
1848.85,0.52471
1856.8,0.52465
1864.81,0.52318
1872.9,0.52657
1881.05,0.52044
1889.28,0.52025
1897.58,0.52049
1905.95,0.51915
1914.39,0.51696
1922.92,0.51663
1931.51,0.5157
1940.19,0.51533
1948.94,0.51536
1957.77,0.51503
1966.68,0.51528
1975.68,0.51523
1984.76,0.51501
1993.92,0.51557
2003.16,0.5161
2012.49,0.51556
2021.91,0.51526
2031.42,0.51576
2041.02,0.51596
2050.7,0.51487
2060.48,0.51545
2070.36,0.51526
2080.33,0.51525
2090.4,0.51533
2100.56,0.51505
2110.82,0.51503
2121.19,0.51446
2131.65,0.51464
2142.22,0.51436
2152.9,0.5139
2163.68,0.51315
2174.57,0.51214
2185.57,0.51031
2196.69,0.50869
2207.91,0.5096
2219.26,0.51102
2230.71,0.51141
2242.29,0.51115
2253.99,0.51128
2265.813,0.51127
2277.76,0.51078
2289.83,0.51111
2302.03,0.51037
2314.37,0.51018
2326.83,0.50944
2339.43,0.509
2352.17,0.50829
2365.05,0.50855
2378.06,0.50811
2391.23,0.50777
2404.54,0.50692
2417.99,0.50593
2431.6,0.50482
2445.37,0.50412
2459.29,0.50417
2473.37,0.50349
2487.61,0.50307
2502.02,0.50293
2516.59,0.50351
2531.34,0.50509
2546.26,0.5074
2561.35,0.51139
2576.63,0.51386
2592.09,0.51815
2607.74,0.5185
2623.57,0.51488
2639.6,0.50493
2655.83,0.50841
2672.26,0.51756
2688.89,0.48602
2705.73,0.44875
2722.78,0.40408
2740.05,0.35978
2757.54,0.33474
2775.26,0.33874
2793.2,0.33903
2811.38,0.33317
2829.79,0.32495
2848.45,0.31838
2867.36,0.3144
2886.51,0.31037
2905.93,0.30795
2925.61,0.30562
2945.56,0.30461
2965.78,0.30554
2986.28,0.30749
3007.07,0.31052
3028.14,0.31349
3049.52,0.31753
3071.2,0.32212
3093.19,0.32822
3115.49,0.33406
3138.12,0.34146
3161.09,0.34903
3184.39,0.35574
3208.03,0.36252
3232.03,0.3681
3256.39,0.37313
3281.13,0.37901
3306.24,0.38589
3331.74,0.39254
3357.63,0.39456
3383.93,0.39685
3410.64,0.39779
3437.79,0.4105
3465.36,0.41893
3493.38,0.42234
3521.86,0.43363
3550.81,0.44022
3580.23,0.44502
3610.15,0.44907
3640.58,0.45188
3671.52,0.45415
3702.99,0.45613
3735,0.45783
3767.57,0.45946
3800.72,0.46001
3834.45,0.45979
3868.79,0.46027
3903.75,0.46014
3939.35,0.45942
3975.6,0.45731
4012.52,0.45689
4050.14,0.45633
4088.47,0.45436
4127.53,0.45174
4167.35,0.44857
4207.94,0.46999
4249.33,0.48495
4291.54,0.46956
4334.6,0.42132
4378.53,0.40307
4423.36,0.39373
4469.12,0.38273
4515.84,0.36259
4563.54,0.34506
4612.26,0.32675
4662.03,0.30591
4712.89,0.2921
4764.87,0.27154
4818.01,0.28003
4872.35,0.26739
4927.93,0.26714
4984.79,0.24307
5042.98,0.23021
5102.54,0.21
5163.53,0.19117
5225.99,0.17868
5289.98,0.18286
5355.56,0.18332
5422.78,0.15794
5491.72,0.13426
5562.43,0.11218
5634.98,0.11024
5709.45,0.10416
5785.92,0.10975
5864.46,0.11284
5945.16,0.10833
6028.12,0.10293
6113.42,0.09655
6201.17,0.08755
6291.48,0.09053
6384.46,0.09868
6480.23,0.09444
6578.91,0.0837
6680.64,0.0755
6785.58,0.0681
6893.86,0.06014
7005.65,0.05223
7121.13,0.04219
7240.48,0.03044
7363.89,0.02211
7491.59,0.01622
7623.79,0.01149
7760.75,0.00991
7902.71,0.01327
8049.97,0.02453
8202.82,0.0467
8361.58,0.06198
8526.61,0.06287
8698.29,0.06136
8877.02,0.052
9063.25,0.04618
9257.46,0.0468
9460.18,0.05502
9671.98,0.07317
9893.47,0.0696
10125.4,0.06675
10368.4,0.05547
10623.3,0.06456
10891.1,0.07907
11172.8,0.09184
11469.4,0.09897
11782.2,0.09764
12112.6,0.08248
12462,0.04366
12832.1,0.03205
13224.9,0.03396
13642.6,0.03333
14087.4,0.04548
14562.3,0.04843
15070.3,0.04172
15615,0.03182
16200.6,0.03884
16831.8,0.04735
17514.1,0.04323
18254.2,0.04023
19059.5,0.04211
19939.2,0.04319
20904,0.03718
21966.9,0.03799
23143.7,0.05958
24453.7,0.05006
25412.6,0.04833