File: csv_library/FTIR_PLG_08.csv
Database of Origin,University of Winnipeg Spectrophotometer Facility
Sample Description,IR Reflectance spectra of plagioclase with a Bruker Vertex 70 FTIR. See Master Plagioclase in PSF database for additional info.
Date Added,2016-11-22 04:00:06.377422

Data ID,FTIR_PLG_08
Sample ID,PLG117
Mineral Name,Plagioclase
Grain Size,<45 um
Viewing Geometry,"i30, e0"
Resolution,7.71cm-1
Material Class,Tectosilicate

Wavelength
1670.16,0.55299
1676.64,0.55254
1683.18,0.55335
1689.76,0.55235
1696.39,0.55169
1703.08,0.55239
1709.82,0.55087
1716.62,0.55157
1723.46,0.55124
1730.37,0.55021
1737.33,0.55187
1744.34,0.55139
1751.41,0.55054
1758.54,0.55021
1765.73,0.54985
1772.98,0.54982
1780.28,0.54973
1787.65,0.54961
1795.08,0.54938
1802.57,0.55054
1810.12,0.55019
1817.73,0.55093
1825.42,0.55142
1833.16,0.55254
1840.97,0.55459
1848.85,0.553
1856.8,0.55246
1864.81,0.54989
1872.9,0.55288
1881.05,0.54535
1889.28,0.54405
1897.58,0.53939
1905.95,0.53422
1914.39,0.52988
1922.92,0.52977
1931.51,0.53051
1940.19,0.53152
1948.94,0.53184
1957.77,0.5324
1966.68,0.53341
1975.68,0.53349
1984.76,0.53469
1993.92,0.53544
2003.16,0.536
2012.49,0.5369
2021.91,0.53812
2031.42,0.53867
2041.02,0.53982
2050.7,0.53923
2060.48,0.53956
2070.36,0.53989
2080.33,0.54008
2090.4,0.53951
2100.56,0.53946
2110.82,0.53869
2121.19,0.53783
2131.65,0.53696
2142.22,0.53571
2152.9,0.53324
2163.68,0.52859
2174.57,0.52238
2185.57,0.51618
2196.69,0.51197
2207.91,0.51431
2219.26,0.5182
2230.71,0.51498
2242.29,0.51095
2253.99,0.50777
2265.813,0.5071
2277.76,0.50597
2289.83,0.50202
2302.03,0.50055
2314.37,0.49483
2326.83,0.47833
2339.43,0.46815
2352.17,0.4646
2365.05,0.46984
2378.06,0.48077
2391.23,0.48359
2404.54,0.48729
2417.99,0.4875
2431.6,0.48554
2445.37,0.48418
2459.29,0.48245
2473.37,0.48031
2487.61,0.47968
2502.02,0.47842
2516.59,0.47697
2531.34,0.47605
2546.26,0.4774
2561.35,0.4787
2576.63,0.48032
2592.09,0.48392
2607.74,0.48153
2623.57,0.47664
2639.6,0.46604
2655.83,0.46564
2672.26,0.46585
2688.89,0.42325
2705.73,0.34897
2722.78,0.23692
2740.05,0.16902
2757.54,0.15444
2775.26,0.17955
2793.2,0.17873
2811.38,0.16807
2829.79,0.1634
2848.45,0.14768
2867.36,0.1236
2886.51,0.14454
2905.93,0.15698
2925.61,0.15323
2945.56,0.155
2965.78,0.16091
2986.28,0.16472
3007.07,0.16945
3028.14,0.17731
3049.52,0.18505
3071.2,0.19038
3093.19,0.19274
3115.49,0.19412
3138.12,0.19597
3161.09,0.1997
3184.39,0.2065
3208.03,0.21675
3232.03,0.22772
3256.39,0.23922
3281.13,0.24981
3306.24,0.25793
3331.74,0.2655
3357.63,0.27214
3383.93,0.28017
3410.64,0.28738
3437.79,0.30193
3465.36,0.3131
3493.38,0.32069
3521.86,0.3349
3550.81,0.34645
3580.23,0.35508
3610.15,0.36302
3640.58,0.37035
3671.52,0.37722
3702.99,0.38426
3735,0.39061
3767.57,0.39664
3800.72,0.40026
3834.45,0.40188
3868.79,0.40441
3903.75,0.40749
3939.35,0.40773
3975.6,0.40362
4012.52,0.41019
4050.14,0.41421
4088.47,0.41558
4127.53,0.4141
4167.35,0.41197
4207.94,0.42423
4249.33,0.43408
4291.54,0.42384
4334.6,0.39613
4378.53,0.38243
4423.36,0.36729
4469.12,0.35158
4515.84,0.3549
4563.54,0.35143
4612.26,0.33598
4662.03,0.32652
4712.89,0.32127
4764.87,0.31259
4818.01,0.30453
4872.35,0.29778
4927.93,0.28955
4984.79,0.28123
5042.98,0.26917
5102.54,0.25797
5163.53,0.24641
5225.99,0.23521
5289.98,0.22109
5355.56,0.20866
5422.78,0.19463
5491.72,0.19203
5562.43,0.19732
5634.98,0.19715
5709.45,0.19067
5785.92,0.17674
5864.46,0.16113
5945.16,0.13904
6028.12,0.12132
6113.42,0.11697
6201.17,0.12188
6291.48,0.12303
6384.46,0.12707
6480.23,0.12681
6578.91,0.12171
6680.64,0.11276
6785.58,0.10512
6893.86,0.0976
7005.65,0.09328
7121.13,0.08799
7240.48,0.08095
7363.89,0.07293
7491.59,0.0624
7623.79,0.05096
7760.75,0.03984
7902.71,0.0303
8049.97,0.024
8202.82,0.0232
8361.58,0.02942
8526.61,0.03592
8698.29,0.03818
8877.02,0.03693
9063.25,0.03489
9257.46,0.03007
9460.18,0.03044
9671.98,0.03668
9893.47,0.03661
10125.4,0.03812
10368.4,0.04236
10623.3,0.04776
10891.1,0.04819
11172.8,0.04845
11469.4,0.05132
11782.2,0.05912
12112.6,0.05794
12462,0.05087
12832.1,0.03413
13224.9,0.03099
13642.6,0.03094
14087.4,0.03081
14562.3,0.02717
15070.3,0.02868
15615,0.03481
16200.6,0.03541
16831.8,0.03947
17514.1,0.03772
18254.2,0.03935
19059.5,0.04008
19939.2,0.03467
20904,0.03411
21966.9,0.03703
23143.7,0.03468
24453.7,0.04812
25412.6,0.02431