File: csv_library/FTIR_PLG_10.csv
Database of Origin,University of Winnipeg Spectrophotometer Facility
Sample Description,IR Reflectance spectra of plagioclase with a Bruker Vertex 70 FTIR. See Master Plagioclase in PSF database for additional info.
Date Added,2016-11-22 04:00:06.409220

Data ID,FTIR_PLG_10
Sample ID,PLG130
Mineral Name,Plagioclase
Grain Size,<45 um
Viewing Geometry,"i30, e0"
Resolution,7.71cm-1
Material Class,Tectosilicate

Wavelength
1670.16,0.49039
1676.64,0.4906
1683.18,0.49112
1689.76,0.49079
1696.39,0.48984
1703.08,0.49096
1709.82,0.48938
1716.62,0.4901
1723.46,0.48923
1730.37,0.48942
1737.33,0.48962
1744.34,0.48956
1751.41,0.48804
1758.54,0.48831
1765.73,0.48809
1772.98,0.48796
1780.28,0.48851
1787.65,0.48848
1795.08,0.48802
1802.57,0.48864
1810.12,0.48966
1817.73,0.49178
1825.42,0.4937
1833.16,0.49569
1840.97,0.49861
1848.85,0.49758
1856.8,0.49567
1864.81,0.4924
1872.9,0.50051
1881.05,0.48687
1889.28,0.48448
1897.58,0.48211
1905.95,0.47828
1914.39,0.46914
1922.92,0.46158
1931.51,0.45496
1940.19,0.45001
1948.94,0.44818
1957.77,0.44785
1966.68,0.4487
1975.68,0.45019
1984.76,0.45271
1993.92,0.45632
2003.16,0.45913
2012.49,0.46236
2021.91,0.46448
2031.42,0.4662
2041.02,0.46747
2050.7,0.46795
2060.48,0.46913
2070.36,0.47067
2080.33,0.47124
2090.4,0.47216
2100.56,0.47308
2110.82,0.47426
2121.19,0.47438
2131.65,0.47491
2142.22,0.4756
2152.9,0.47575
2163.68,0.47537
2174.57,0.47592
2185.57,0.47634
2196.69,0.47648
2207.91,0.47682
2219.26,0.47683
2230.71,0.47691
2242.29,0.47703
2253.99,0.47689
2265.813,0.47665
2277.76,0.47645
2289.83,0.47621
2302.03,0.47564
2314.37,0.47469
2326.83,0.47421
2339.43,0.47309
2352.17,0.4713
2365.05,0.46933
2378.06,0.46642
2391.23,0.46253
2404.54,0.45816
2417.99,0.45471
2431.6,0.45159
2445.37,0.44922
2459.29,0.44722
2473.37,0.44584
2487.61,0.44584
2502.02,0.44555
2516.59,0.44686
2531.34,0.45147
2546.26,0.45635
2561.35,0.46531
2576.63,0.47085
2592.09,0.47873
2607.74,0.47846
2623.57,0.46709
2639.6,0.44419
2655.83,0.44956
2672.26,0.4715
2688.89,0.42543
2705.73,0.39118
2722.78,0.3581
2740.05,0.30559
2757.54,0.25559
2775.26,0.21825
2793.2,0.1933
2811.38,0.18085
2829.79,0.16986
2848.45,0.1625
2867.36,0.15738
2886.51,0.15476
2905.93,0.15246
2925.61,0.14881
2945.56,0.14709
2965.78,0.14844
2986.28,0.15062
3007.07,0.15253
3028.14,0.15224
3049.52,0.15097
3071.2,0.15256
3093.19,0.15739
3115.49,0.16577
3138.12,0.17479
3161.09,0.18476
3184.39,0.19537
3208.03,0.2064
3232.03,0.2167
3256.39,0.2276
3281.13,0.23907
3306.24,0.25219
3331.74,0.26429
3357.63,0.27374
3383.93,0.28371
3410.64,0.29267
3437.79,0.30732
3465.36,0.31929
3493.38,0.32851
3521.86,0.34213
3550.81,0.352
3580.23,0.36105
3610.15,0.36866
3640.58,0.37534
3671.52,0.38124
3702.99,0.3866
3735,0.39112
3767.57,0.39564
3800.72,0.39934
3834.45,0.40191
3868.79,0.40347
3903.75,0.40451
3939.35,0.40511
3975.6,0.40363
4012.52,0.40156
4050.14,0.398
4088.47,0.39311
4127.53,0.38757
4167.35,0.38063
4207.94,0.40143
4249.33,0.41703
4291.54,0.39488
4334.6,0.33985
4378.53,0.32268
4423.36,0.32142
4469.12,0.32225
4515.84,0.32087
4563.54,0.31638
4612.26,0.30893
4662.03,0.29961
4712.89,0.29047
4764.87,0.28251
4818.01,0.27499
4872.35,0.2684
4927.93,0.26091
4984.79,0.25112
5042.98,0.24139
5102.54,0.22983
5163.53,0.21705
5225.99,0.20549
5289.98,0.1935
5355.56,0.1835
5422.78,0.17228
5491.72,0.16485
5562.43,0.16398
5634.98,0.15868
5709.45,0.15155
5785.92,0.13768
5864.46,0.12168
5945.16,0.08834
6028.12,0.08286
6113.42,0.08429
6201.17,0.08139
6291.48,0.08083
6384.46,0.09165
6480.23,0.09533
6578.91,0.094
6680.64,0.08656
6785.58,0.08105
6893.86,0.07414
7005.65,0.06777
7121.13,0.05938
7240.48,0.05039
7363.89,0.04063
7491.59,0.03061
7623.79,0.02125
7760.75,0.01314
7902.71,0.00762
8049.97,0.00544
8202.82,0.00843
8361.58,0.0165
8526.61,0.02017
8698.29,0.02119
8877.02,0.02233
9063.25,0.02063
9257.46,0.01786
9460.18,0.01922
9671.98,0.02477
9893.47,0.02853
10125.4,0.02921
10368.4,0.03227
10623.3,0.03615
10891.1,0.03623
11172.8,0.03477
11469.4,0.03877
11782.2,0.04414
12112.6,0.05262
12462,0.03683
12832.1,0.01951
13224.9,0.01701
13642.6,0.01635
14087.4,0.01548
14562.3,0.0131
15070.3,0.01495
15615,0.02163
16200.6,0.02468
16831.8,0.03029
17514.1,0.02697
18254.2,0.02704
19059.5,0.02173
19939.2,0.02626
20904,0.02411
21966.9,0.02283
23143.7,0.0252
24453.7,0.03836
25412.6,0.04941