File: csv_library/FTIR_PLG_04.csv
Database of Origin,University of Winnipeg Spectrophotometer Facility
Sample Description,IR Reflectance spectra of plagioclase with a Bruker Vertex 70 FTIR. See Master Plagioclase in PSF database for additional info.
Date Added,2016-11-22 04:00:06.309687

Data ID,FTIR_PLG_04
Sample ID,PLG109
Mineral Name,Plagioclase
Grain Size,<45 um
Viewing Geometry,"i30, e0"
Resolution,7.71cm-1
Material Class,Tectosilicate

Wavelength
1670.16,0.39683
1676.64,0.39616
1683.18,0.39686
1689.76,0.39606
1696.39,0.39627
1703.08,0.39623
1709.82,0.39483
1716.62,0.39555
1723.46,0.39529
1730.37,0.39579
1737.33,0.39634
1744.34,0.397
1751.41,0.3962
1758.54,0.39594
1765.73,0.39565
1772.98,0.39575
1780.28,0.39623
1787.65,0.39588
1795.08,0.39605
1802.57,0.39684
1810.12,0.3975
1817.73,0.40034
1825.42,0.40278
1833.16,0.40431
1840.97,0.40729
1848.85,0.40644
1856.8,0.40504
1864.81,0.40251
1872.9,0.41173
1881.05,0.39929
1889.28,0.40036
1897.58,0.40206
1905.95,0.4034
1914.39,0.40039
1922.92,0.39952
1931.51,0.39723
1940.19,0.3962
1948.94,0.39565
1957.77,0.3956
1966.68,0.3957
1975.68,0.39556
1984.76,0.3961
1993.92,0.39597
2003.16,0.39588
2012.49,0.39694
2021.91,0.39709
2031.42,0.39701
2041.02,0.39746
2050.7,0.39751
2060.48,0.39769
2070.36,0.39816
2080.33,0.39852
2090.4,0.39874
2100.56,0.39844
2110.82,0.39893
2121.19,0.39911
2131.65,0.39909
2142.22,0.39905
2152.9,0.399
2163.68,0.39908
2174.57,0.39877
2185.57,0.39866
2196.69,0.39825
2207.91,0.39849
2219.26,0.39891
2230.71,0.39885
2242.29,0.39865
2253.99,0.39919
2265.813,0.39919
2277.76,0.39941
2289.83,0.39902
2302.03,0.39871
2314.37,0.39808
2326.83,0.39793
2339.43,0.39826
2352.17,0.39873
2365.05,0.39925
2378.06,0.39911
2391.23,0.39929
2404.54,0.39964
2417.99,0.40003
2431.6,0.40003
2445.37,0.39972
2459.29,0.39925
2473.37,0.39948
2487.61,0.40008
2502.02,0.40022
2516.59,0.40176
2531.34,0.4073
2546.26,0.41289
2561.35,0.42393
2576.63,0.43082
2592.09,0.44114
2607.74,0.44287
2623.57,0.43431
2639.6,0.41456
2655.83,0.42618
2672.26,0.45749
2688.89,0.40966
2705.73,0.34582
2722.78,0.27217
2740.05,0.23702
2757.54,0.22405
2775.26,0.22308
2793.2,0.22522
2811.38,0.22849
2829.79,0.2276
2848.45,0.22743
2867.36,0.22491
2886.51,0.22468
2905.93,0.22513
2925.61,0.2253
2945.56,0.22779
2965.78,0.23209
2986.28,0.23671
3007.07,0.24266
3028.14,0.24849
3049.52,0.25454
3071.2,0.25991
3093.19,0.26588
3115.49,0.27203
3138.12,0.27915
3161.09,0.28597
3184.39,0.29374
3208.03,0.30132
3232.03,0.30659
3256.39,0.31283
3281.13,0.31906
3306.24,0.32512
3331.74,0.3293
3357.63,0.33049
3383.93,0.33226
3410.64,0.33213
3437.79,0.34232
3465.36,0.34845
3493.38,0.35124
3521.86,0.36064
3550.81,0.36726
3580.23,0.37182
3610.15,0.37542
3640.58,0.37879
3671.52,0.38162
3702.99,0.38427
3735,0.38612
3767.57,0.38848
3800.72,0.38943
3834.45,0.38933
3868.79,0.38926
3903.75,0.3892
3939.35,0.38832
3975.6,0.38449
4012.52,0.38705
4050.14,0.38828
4088.47,0.38825
4127.53,0.38715
4167.35,0.38524
4207.94,0.41105
4249.33,0.43048
4291.54,0.41832
4334.6,0.37554
4378.53,0.36047
4423.36,0.35322
4469.12,0.34542
4515.84,0.33604
4563.54,0.32524
4612.26,0.31389
4662.03,0.30153
4712.89,0.29177
4764.87,0.28405
4818.01,0.27725
4872.35,0.27079
4927.93,0.26297
4984.79,0.25325
5042.98,0.24041
5102.54,0.22317
5163.53,0.20817
5225.99,0.19656
5289.98,0.18629
5355.56,0.17881
5422.78,0.16887
5491.72,0.15871
5562.43,0.15311
5634.98,0.14739
5709.45,0.14314
5785.92,0.13331
5864.46,0.12806
5945.16,0.11574
6028.12,0.10547
6113.42,0.10029
6201.17,0.09624
6291.48,0.09249
6384.46,0.09958
6480.23,0.10103
6578.91,0.09587
6680.64,0.08397
6785.58,0.07533
6893.86,0.06703
7005.65,0.06051
7121.13,0.05389
7240.48,0.0463
7363.89,0.03745
7491.59,0.0281
7623.79,0.01927
7760.75,0.0118
7902.71,0.0074
8049.97,0.00762
8202.82,0.01679
8361.58,0.03126
8526.61,0.03158
8698.29,0.03162
8877.02,0.03027
9063.25,0.02626
9257.46,0.02349
9460.18,0.02797
9671.98,0.03288
9893.47,0.0359
10125.4,0.03558
10368.4,0.03556
10623.3,0.03765
10891.1,0.03849
11172.8,0.04229
11469.4,0.05249
11782.2,0.05714
12112.6,0.05807
12462,0.03405
12832.1,0.02151
13224.9,0.01948
13642.6,0.01969
14087.4,0.01934
14562.3,0.01695
15070.3,0.01646
15615,0.02619
16200.6,0.02765
16831.8,0.03369
17514.1,0.03309
18254.2,0.03348
19059.5,0.03393
19939.2,0.0272
20904,0.02129
21966.9,0.02431
23143.7,0.02196
24453.7,0.02437
25412.6,0.02476