File: csv_library/FTIR_CARB_39_5.csv
Database of Origin,University of Winnipeg Spectrophotometer Facility
Sample Description,Carbonates and Oxolates -  D&P Spectra Reflectance spectra
Other Information,"Designs and Prototypes 102F spectra/Relative to infragold 1"" disk/Reflectance only"
Date Added,2018-08-06 21:06:09.618237

Data ID,FTIR_CARB_39_5
Sample ID,CRB114
Mineral Name,magnesite
Locality,Currant Creek/ Nevada/ USA
Grain Size,<45 um
Viewing Geometry,i=35/ e=0
Resolution,~3 cm-1
Formula,Mg(CO3)
Composition,Magnesite plus other stuff- probably huntite; some broad and low angle peaks.

Wavelength
2.001142,0.684147
2.008155,0.688236
2.015217,0.691169
2.022328,0.695654
2.029488,0.698074
2.036698,0.700402
2.043959,0.703606
2.051271,0.705219
2.058635,0.706783
2.066051,0.709434
2.073519,0.707679
2.081041,0.705645
2.088617,0.704302
2.096247,0.704766
2.103932,0.710123
2.111673,0.714133
2.119471,0.710829
2.127325,0.71192
2.135237,0.715722
2.143207,0.717318
2.151235,0.719368
2.159324,0.720662
2.167472,0.719755
2.175682,0.717171
2.183952,0.715643
2.192285,0.716165
2.200682,0.714071
2.209141,0.713463
2.217665,0.708236
2.226254,0.703114
2.23491,0.694835
2.243631,0.688605
2.252421,0.680642
2.261278,0.671529
2.270204,0.663713
2.279201,0.65583
2.288268,0.6455961
2.297406,0.636705
2.306617,0.619773
2.315901,0.597228
2.325259,0.598857
2.334692,0.605976
2.344201,0.630168
2.353787,0.652555
2.363451,0.654825
2.373194,0.643149
2.383016,0.633203
2.392919,0.632513
2.402903,0.629327
2.412971,0.628443
2.423122,0.616731
2.433358,0.609697
2.443679,0.607443
2.454088,0.6019
2.464585,0.598594
2.475171,0.588434
2.485847,0.578946
2.496615,0.569269
2.507476,0.564851
2.518431,0.56881
2.52948,0.576271
2.540627,0.582506
2.55187,0.585097
2.563213,0.59038
2.574656,0.591124
2.586201,0.595092
2.597849,0.593374
2.609601,0.593374
2.621459,0.592516
2.633424,0.582574
2.645498,0.56707
2.657682,0.543545
2.669978,0.516287
2.682387,0.376657
2.694911,0.166372
2.707552,0.09334638
2.72031,0.1350204
2.733188,0.113403
2.746188,0.104611
2.759311,0.122091
2.772559,0.125337
2.785934,0.117614
2.799437,0.1130111
2.813071,0.108773
2.826837,0.105232
2.840737,0.101118
2.854774,0.09635376
2.868949,0.09321614
2.883265,0.0893081
2.897723,0.08638079
2.912325,0.0829355
2.927075,0.08056628
2.941973,0.07984696
2.957023,0.08145134
2.972226,0.08030085
2.987586,0.08196547
3.003103,0.08579543
3.018782,0.08810196
3.034624,0.09361348
3.050632,0.09315943
3.066809,0.09747421
3.083157,0.09691136
3.099679,0.09979587
3.116378,0.102323
3.133257,0.10624
3.150319,0.112088
3.167566,0.117955
3.185001,0.124592
3.202629,0.131189
3.220451,0.141143
3.238472,0.146459
3.256694,0.154279
3.275122,0.146137
3.293757,0.156348
3.312605,0.160926
3.331669,0.165712
3.350952,0.166721
3.370458,0.172521
3.390191,0.178318
3.410156,0.177138
3.430355,0.177091
3.450794,0.189154
3.471477,0.199216
3.492408,0.2317043
3.513592,0.263795
3.535032,0.293726
3.556735,0.314811
3.578704,0.332811
3.600946,0.347011
3.623463,0.359657
3.646263,0.370928
3.669351,0.380268
3.692731,0.388617
3.716409,0.392004
3.740392,0.374769
3.764685,0.349978
3.789294,0.321803
3.814225,0.3065281
3.839486,0.295332
3.865081,0.290463
3.891019,0.268976
3.917305,0.247882
3.943948,0.230814
3.970954,0.253895
3.99833,0.330867
4.026086,0.403163
4.054228,0.463213
4.082764,0.491055
4.111703,0.50716
4.141054,0.5179892
4.170826,0.528766
4.201026,0.546844
4.231666,0.624656
4.262754,0.597452
4.294301,0.6213796
4.326317,0.600576
4.358811,0.590921
4.391796,0.596187
4.425282,0.6066533
4.459281,0.6160505
4.493805,0.62342
4.528865,0.629353
4.564475,0.633087
4.600648,0.642707
4.637397,0.657454
4.674735,0.672249
4.712678,0.684723
4.75124,0.695919
4.790436,0.706564
4.830283,0.714901
4.870795,0.722165
4.911991,0.728913
4.953888,0.738232
4.996504,0.743472
5.039857,0.746524
5.083967,0.75605
5.128854,0.76217
5.174538,0.76529
5.221041,0.76775
5.268386,0.770175
5.316595,0.772614
5.365692,0.771442
5.415701,0.775619
5.46665,0.779553
5.518564,0.767639
5.57147,0.724121
5.625399,0.8033057
5.680379,0.8129209
5.736443,0.823048
5.793621,0.821017
5.851948,0.832191
5.911459,0.831751
5.97219,0.848721
6.034179,0.85065
6.097466,0.861468
6.162091,0.877874
6.228099,0.878962
6.295533,0.883378
6.36444,0.901857
6.434869,0.90447
6.506872,0.903767
6.580501,0.919635
6.655812,0.9110166
6.732864,0.915539
6.811718,0.9235921
6.892437,0.9309309
6.975089,0.930518
7.059743,0.932607
7.146475,0.944735
7.23536,0.948105
7.326481,0.956765
7.419922,0.956925
7.515774,0.961444
7.614131,0.966175
7.715093,0.969056
7.818764,0.971168
7.925254,0.97438
8.034682,0.976964
8.147169,0.979739
8.262847,0.981982
8.381852,0.983985
8.504331,0.986893
8.630437,0.98883
8.760335,0.989662
8.894198,0.991138
9.03221,0.992258
9.174568,0.993078
9.32148,0.993081
9.473167,0.9934823
9.629868,0.994585
9.791834,0.9951908
9.959336,0.9965119
10.1327,0.99738
10.3121,0.997828
10.498,0.998992
10.69079,0.999737
10.8907,0.999941
11.0983,0.0100012
11.3139,0.999758
11.5381,0.0100047
11.77129,0.0100007
12.0141,0.9997109
12.26716,0.999553
12.5311,0.9999372
12.8066,0.0100006
13.09451,0.999468
13.3956,0.998557
13.7109,0.997727
14.0414,0.997126
14.3882,0.99344
14.7526,0.983106
15.1359,0.957173
15.5396,0.867342
15.9654,0.657077