File: csv_library/FTIR_OLI_02.csv
Database of Origin,University of Winnipeg Spectrophotometer Facility
Sample Description,FTIR spectra of Olivnes from PSF sample database See Master Olivines in PSF sample database for additional info
Date Added,2016-12-06 04:17:21.5374

Data ID,FTIR_OLI_02
Sample ID,olv102n
Mineral Name,Olivine
Grain Size,Whole rock
Viewing Geometry,"i=30, e=0?"
Resolution,~1.5 cm-1
Material Class,Nesosilicate

Wavelength
1999.978,0.43076
2006.397,0.44071
2012.858,0.454042
2019.359,0.4673446
2025.902,0.481909
2032.486,0.495694
2039.113,0.511644
2045.782,0.528911
2052.495,0.5465731
2059.251,0.566872
2066.051,0.583831
2072.895,0.602821
2079.784,0.61906
2086.718,0.637398
2093.697,0.657365
2100.723,0.693917
2107.796,0.756245
2114.915,0.805501
2122.082,0.825248
2129.297,0.77201
2136.561,0.831223
2143.873,0.847876
2151.235,0.8442487
2158.647,0.8267896
2166.11,0.800292
2173.624,0.779309
2181.189,0.783132
2188.806,0.785971
2196.476,0.786897
2204.199,0.782358
2211.975,0.748516
2219.806,0.710731
2227.692,0.678287
2235.634,0.638318
2243.631,0.61108
2251.686,0.584455
2259.797,0.558121
2267.966,0.527312
2276.194,0.5111979
2284.481,0.493652
2292.828,0.472181
2301.235,0.4510544
2309.703,0.429121
2318.234,0.407281
2326.826,0.394552
2335.482,0.386473
2344.201,0.39263
2352.986,0.395244
2361.835,0.385981
2370.751,0.372555
2379.733,0.363537
2388.783,0.3520541
2397.901,0.340495
2407.088,0.331797
2416.345,0.324489
2425.673,0.316563
2435.072,0.3059315
2444.543,0.301444
2454.088,0.2974825
2463.707,0.290053
2473.4,0.279896
2483.17,0.274686
2493.016,0.269465
2502.939,0.261152
2512.942,0.260111
2523.023,0.262685
2533.185,0.269889
2543.428,0.271163
2553.754,0.264525
2564.163,0.301827
2574.656,0.298695
2585.235,0.310953
2595.9,0.400716
2606.653,0.32923
2617.495,0.328453
2628.426,0.3068402
2639.447,0.245333
2650.561,0.249811
2661.768,0.268095
2673.07,0.290763
2684.467,0.242202
2695.96,0.191297
2707.552,0.131009
2719.242,0.1910462
2731.034,0.123577
2742.927,0.163835
2754.923,0.215887
2767.024,0.172821
2779.23,0.1736311
2791.544,0.186885
2803.967,0.3401
2816.5,0.252737
2829.144,0.266625
2841.902,0.294712
2854.774,0.3442703
2867.763,0.317763
2880.869,0.309789
2894.095,0.304705
2907.441,0.2975837
2920.911,0.272377
2934.505,0.249401
2948.225,0.234562
2962.073,0.212451
2976.051,0.200411
2990.161,0.184955
3004.404,0.176692
3018.782,0.1693761
3033.298,0.164551
3047.953,0.158985
3062.749,0.155219
3077.689,0.15351
3092.774,0.151548
3108.007,0.1493149
3123.389,0.145618
3138.924,0.141233
3154.613,0.137505
3170.458,0.1341791
3186.463,0.131722
3202.629,0.12998
3218.958,0.127999
3235.455,0.124227
3252.12,0.12267
3268.956,0.119822
3285.967,0.1179641
3303.155,0.117097
3320.522,0.115826
3338.072,0.115122
3355.807,0.116612
3373.731,0.121098
3391.846,0.117086
3410.156,0.11937
3428.663,0.120536
3447.371,0.117405
3466.283,0.115702
3485.403,0.116329
3504.734,0.119268
3524.28,0.118214
3544.043,0.1185158
3564.028,0.119958
3584.239,0.1214874
3604.679,0.122177
3625.353,0.123545
3646.263,0.1243613
3667.416,0.125878
3688.814,0.127104
3710.461,0.128923
3732.364,0.1307
3754.525,0.132174
3776.95,0.133304
3799.643,0.134224
3822.609,0.135041
3845.853,0.135782
3869.38,0.13635
3893.196,0.136643
3917.305,0.13733
3941.714,0.1380066
3966.427,0.139001
3991.451,0.139563
4016.791,0.139804
4042.454,0.14109
4068.446,0.14295
4094.773,0.144726
4121.441,0.146299
4148.457,0.148322
4175.829,0.150729
4203.563,0.183922
4231.666,0.01025
4260.146,0.2642827
4289.011,0.393419
4318.268,0.238067
4347.926,0.185156
4377.992,0.175283
4408.476,0.178556
4439.386,0.180797
4470.73,0.183536
4502.519,0.185872
4534.762,0.188346
4567.468,0.19123
4600.648,0.193893
4634.312,0.197657
4668.471,0.201424
4703.135,0.20533
4738.316,0.209567
4774.026,0.2135369
4810.277,0.216807
4847.081,0.220797
4884.451,0.221579
4922.399,0.224022
4960.941,0.228761
5000.088,0.2329348
5039.857,0.237643
5080.262,0.243791
5121.318,0.2470143
5163.041,0.252173
5205.448,0.26298
5248.555,0.264306
5292.381,0.274704
5336.942,0.279905
5382.259,0.2910528
5428.349,0.357031
5475.234,0.0148543
5522.934,0.1240515
5571.47,0.01666983
5620.865,0.04543157
5671.142,0.0690433
5722.324,0.08641705
5774.436,0.100808
5827.503,0.1144343
5881.553,0.126485
5936.613,0.138296
5992.711,0.1493457
6049.878,0.154452
6108.143,0.163949
6167.539,0.174003
6228.099,0.189414
6289.858,0.203014
6352.851,0.215302
6417.116,0.228087
6482.693,0.242848
6549.621,0.259412
6617.943,0.27701
6687.702,0.286881
6758.945,0.300364
6831.72,0.311657
6906.076,0.324169
6982.066,0.3400043
7059.743,0.356277
7139.166,0.37432
7220.393,0.392858
7303.487,0.412907
7388.512,0.429701
7475.537,0.449578
7564.633,0.466698
7655.876,0.483669
7749.343,0.501139
7845.117,0.518062
7943.285,0.53529
8043.937,0.554194
8147.169,0.570159
8253.082,0.583515
8361.781,0.5961878
8473.377,0.608581
8587.989,0.622458
8705.739,0.636892
8826.76,0.650337
8951.188,0.663521
9079.17,0.673127
9210.86,0.680645
9346.423,0.696115
9486.031,0.707713
9629.868,0.718424
9778.129,0.731582
9931.022,0.7447955
10088.768,0.765338
10251.6,0.772493
10419.769,0.787667
10593.542,0.797675
10773.203,0.796466
10959.058,0.793862
11151.432,0.790671
11350.675,0.78744
11557.16,0.781937
11771.29,0.780458
11993.497,0.783934
12224.249,0.781507
12464.046,0.782707
12713.432,0.7852
12972.993,0.787491
13243.366,0.785473
13525.24,0.781869
13819.365,0.779438
14126.558,0.76736
14447.709,0.73964
14783.791,0.671492
15135.871,0.5290562
15505.12,0.290016
15892.824,0.1321328
15965.407,0.116777