File: csv_library/FTIR_CLAY_04.csv
Database of Origin,University of Winnipeg Spectrophotometer Facility
Sample Description,See Master Clays in HOSERLab database
Date Added,2016-12-11 20:56:55.1529

Data ID,FTIR_CLAY_04
Sample ID,CRO101
Mineral Name,Cronstedtite
Grain Size,<45 m
Viewing Geometry,35/0
Resolution,11-72 nm
Material Class,Phyllosilicate

Wavelength
2001.142,0.163281
2008.155,0.16385
2015.217,0.164434
2022.328,0.1646751
2029.488,0.164809
2036.698,0.165582
2043.959,0.166478
2051.271,0.166725
2058.635,0.167507
2066.051,0.16721
2073.519,0.16762
2081.041,0.1682238
2088.617,0.16908
2096.247,0.169202
2103.932,0.1699781
2111.673,0.169947
2119.471,0.170184
2127.325,0.171334
2135.237,0.171679
2143.207,0.17142
2151.235,0.171861
2159.324,0.171834
2167.472,0.172747
2175.682,0.173087
2183.952,0.173484
2192.285,0.173923
2200.682,0.174217
2209.141,0.174446
2217.665,0.1742807
2226.254,0.174422
2234.91,0.174494
2243.631,0.175071
2252.421,0.175167
2261.278,0.17501
2270.204,0.174781
2279.201,0.174581
2288.268,0.174386
2297.406,0.174377
2306.617,0.1729087
2315.901,0.171088
2325.259,0.169748
2334.692,0.17146
2344.201,0.172728
2353.787,0.172374
2363.451,0.172098
2373.194,0.17158
2383.016,0.1728265
2392.919,0.1732375
2402.903,0.173719
2412.971,0.173792
2423.122,0.174174
2433.358,0.1748412
2443.679,0.174986
2454.088,0.175163
2464.585,0.174971
2475.171,0.174822
2485.847,0.174651
2496.615,0.174549
2507.476,0.174615
2518.431,0.1746091
2529.48,0.174956
2540.627,0.17479
2551.87,0.176634
2563.213,0.18223
2574.656,0.179891
2586.201,0.180596
2597.849,0.1779994
2609.601,0.177816
2621.459,0.178362
2633.424,0.178041
2645.498,0.175474
2657.682,0.174914
2669.978,0.188474
2682.387,0.174743
2694.911,0.182563
2707.552,0.180428
2720.31,0.1898244
2733.188,0.145004
2746.188,0.115072
2759.311,0.09740014
2772.559,0.08086545
2785.934,0.0687198
2799.437,0.06135827
2813.071,0.05721896
2826.837,0.05398055
2840.737,0.04999536
2854.774,0.04734773
2868.949,0.04573512
2883.265,0.04430891
2897.723,0.042914
2912.325,0.04154879
2927.075,0.04028129
2941.973,0.03912874
2957.023,0.03933323
2972.226,0.03745157
2987.586,0.03691298
3003.103,0.03742509
3018.782,0.03675989
3034.624,0.03919472
3050.632,0.03737611
3066.809,0.03881543
3083.157,0.0385647
3099.679,0.04079709
3116.378,0.04069564
3133.257,0.04184249
3150.319,0.04369728
3167.566,0.04571149
3185.001,0.04845274
3202.629,0.04970188
3220.451,0.05426399
3238.472,0.05418637
3256.694,0.05988986
3275.122,0.05929419
3293.757,0.06290538
3312.605,0.06428913
3331.669,0.06955435
3350.952,0.07012361
3370.458,0.07201962
3390.191,0.07330219
3410.156,0.07792668
3430.355,0.08021993
3450.794,0.08428429
3471.477,0.08690757
3492.408,0.09208436
3513.592,0.09340895
3535.032,0.09946939
3556.735,0.101037
3578.704,0.104761
3600.946,0.108806
3623.463,0.112304
3646.263,0.115844
3669.351,0.119668
3692.731,0.124124
3716.409,0.128259
3740.392,0.133039
3764.685,0.137996
3789.294,0.143593
3814.225,0.148927
3839.486,0.154647
3865.081,0.160231
3891.019,0.165774
3917.305,0.172178
3943.948,0.1788688
3970.954,0.186685
3998.33,0.193802
4026.086,0.2003
4054.228,0.20798
4082.764,0.2170201
4111.703,0.227517
4141.054,0.238638
4170.826,0.250716
4201.026,0.273728
4231.666,0.369299
4262.754,0.341329
4294.301,0.372779
4326.317,0.35036
4358.811,0.342767
4391.796,0.353616
4425.282,0.368937
4459.281,0.381972
4493.805,0.393308
4528.865,0.404694
4564.475,0.416261
4600.648,0.428771
4637.397,0.441274
4674.735,0.45377
4712.678,0.46647
4751.24,0.479192
4790.436,0.492383
4830.283,0.501994
4870.795,0.513066
4911.991,0.523846
4953.888,0.536731
4996.504,0.543861
5039.857,0.553301
5083.967,0.568027
5128.854,0.5735515
5174.538,0.58348
5221.041,0.59855
5268.386,0.604793
5316.595,0.613707
5365.692,0.627678
5415.701,0.658219
5466.65,0.690397
5518.564,0.741349
5571.47,0.622122
5625.399,0.530075
5680.379,0.589757
5736.443,0.620421
5793.621,0.625516
5851.948,0.650987
5911.459,0.660829
5972.19,0.687988
6034.179,0.695191
6097.466,0.698784
6162.091,0.708889
6228.099,0.711279
6295.533,0.720076
6364.44,0.745199
6434.869,0.756234
6506.872,0.772531
6580.501,0.793906
6655.812,0.778625
6732.864,0.778188
6811.718,0.788251
6892.437,0.791453
6975.089,0.7982482
7059.743,0.804422
7146.475,0.819386
7235.36,0.816057
7326.481,0.830114
7419.922,0.828754
7515.774,0.834898
7614.131,0.842216
7715.093,0.846182
7818.764,0.849821
7925.254,0.8552059
8034.682,0.859024
8147.169,0.861501
8262.847,0.86229
8381.852,0.864592
8504.331,0.866692
8630.437,0.868798
8760.335,0.870547
8894.198,0.872859
9032.21,0.874344
9174.568,0.874863
9321.48,0.87524
9473.167,0.876587
9629.868,0.87983
9791.834,0.883474
9959.336,0.887014
10132.662,0.8900375
10312.121,0.893112
10498.045,0.895746
10690.79,0.897233
10890.738,0.895938
11098.301,0.893992
11313.921,0.8941008
11538.079,0.895614
11771.29,0.896385
12014.114,0.897225
12267.16,0.89639
12531.086,0.897179
12806.608,0.897739
13094.51,0.897842
13395.644,0.897726
13710.943,0.898037
14041.433,0.894113
14388.237,0.883487
14752.594,0.8556448
15135.871,0.783557
15539.583,0.582917
15965.407,0.34261