File: csv_library/FTIR_CLAY_10.csv
Database of Origin,University of Winnipeg Spectrophotometer Facility
Sample Description,See Master Clays in HOSERLab database
Date Added,2016-12-11 20:56:55.2818

Data ID,FTIR_CLAY_10
Sample ID,MIN002
Mineral Name,Minnesotaite
Grain Size,<45 m
Viewing Geometry,35/0
Resolution,11-72 nm
Material Class,Phyllosilicate

Wavelength
2001.142,0.155975
2008.155,0.15469
2015.217,0.1544717
2022.328,0.153584
2029.488,0.153185
2036.698,0.152911
2043.959,0.1529713
2051.271,0.152268
2058.635,0.151822
2066.051,0.150833
2073.519,0.14949
2081.041,0.148546
2088.617,0.148138
2096.247,0.14773
2103.932,0.146021
2111.673,0.145285
2119.471,0.1440078
2127.325,0.1441111
2135.237,0.142554
2143.207,0.141801
2151.235,0.14143
2159.324,0.140685
2167.472,0.14092
2175.682,0.1398125
2183.952,0.139196
2192.285,0.13825
2200.682,0.137716
2209.141,0.136808
2217.665,0.1371195
2226.254,0.13579
2234.91,0.134907
2243.631,0.133747
2252.421,0.133361
2261.278,0.132046
2270.204,0.13128
2279.201,0.130477
2288.268,0.129932
2297.406,0.129298
2306.617,0.128901
2315.901,0.1279
2325.259,0.127024
2334.692,0.126803
2344.201,0.125991
2353.787,0.125595
2363.451,0.12534
2373.194,0.125869
2383.016,0.126013
2392.919,0.126084
2402.903,0.125586
2412.971,0.124634
2423.122,0.124388
2433.358,0.123904
2443.679,0.123623
2454.088,0.123348
2464.585,0.122538
2475.171,0.122225
2485.847,0.121942
2496.615,0.122395
2507.476,0.122106
2518.431,0.121859
2529.48,0.122459
2540.627,0.123349
2551.87,0.125175
2563.213,0.130835
2574.656,0.1284594
2586.201,0.13026
2597.849,0.128273
2609.601,0.128011
2621.459,0.128824
2633.424,0.129666
2645.498,0.127669
2657.682,0.127836
2669.978,0.142877
2682.387,0.127593
2694.911,0.134503
2707.552,0.123819
2720.31,0.118539
2733.188,0.08355105
2746.188,0.05904167
2759.311,0.05123462
2772.559,0.04960765
2785.934,0.04921373
2799.437,0.04942801
2813.071,0.05061428
2826.837,0.05228609
2840.737,0.05352938
2854.774,0.05392956
2868.949,0.05464031
2883.265,0.05440488
2897.723,0.05414092
2912.325,0.05344396
2927.075,0.05326217
2941.973,0.05425479
2957.023,0.05601521
2972.226,0.05548484
2987.586,0.05591617
3003.103,0.05896946
3018.782,0.05920448
3034.624,0.0639654
3050.632,0.06241866
3066.809,0.06557401
3083.157,0.06514591
3099.679,0.06730402
3116.378,0.06667693
3133.257,0.06754777
3150.319,0.06878408
3167.566,0.06982739
3185.001,0.07265526
3202.629,0.07312124
3220.451,0.07754857
3238.472,0.0756769
3256.694,0.08070447
3275.122,0.07794012
3293.757,0.08052515
3312.605,0.07912279
3331.669,0.08178179
3350.952,0.0775986
3370.458,0.07777789
3390.191,0.0772191
3410.156,0.08041331
3430.355,0.08032453
3450.794,0.08168984
3471.477,0.08072376
3492.408,0.08507335
3513.592,0.08489306
3535.032,0.09062279
3556.735,0.09069303
3578.704,0.09333359
3600.946,0.09629473
3623.463,0.09706194
3646.263,0.09868917
3669.351,0.100344
3692.731,0.102154
3716.409,0.104136
3740.392,0.106941
3764.685,0.109149
3789.294,0.111772
3814.225,0.113762
3839.486,0.115753
3865.081,0.118753
3891.019,0.123331
3917.305,0.126939
3943.948,0.12959
3970.954,0.133374
3998.33,0.140679
4026.086,0.147722
4054.228,0.159712
4082.764,0.170359
4111.703,0.179333
4141.054,0.188553
4170.826,0.198323
4201.026,0.2168745
4231.666,0.286888
4262.754,0.271032
4294.301,0.29399
4326.317,0.280347
4358.811,0.275301
4391.796,0.284042
4425.282,0.297267
4459.281,0.3103656
4493.805,0.323333
4528.865,0.3363509
4564.475,0.349764
4600.648,0.362249
4637.397,0.375762
4674.735,0.390499
4712.678,0.404781
4751.24,0.419898
4790.436,0.4354726
4830.283,0.448404
4870.795,0.461126
4911.991,0.473139
4953.888,0.488437
4996.504,0.497822
5039.857,0.510245
5083.967,0.526753
5128.854,0.534433
5174.538,0.547042
5221.041,0.5650477
5268.386,0.575051
5316.595,0.58618
5365.692,0.602401
5415.701,0.632541
5466.65,0.6518386
5518.564,0.652658
5571.47,0.587676
5625.399,0.622546
5680.379,0.652177
5736.443,0.677476
5793.621,0.677553
5851.948,0.706896
5911.459,0.717771
5972.19,0.745199
6034.179,0.752811
6097.466,0.757753
6162.091,0.767468
6228.099,0.765223
6295.533,0.771157
6364.44,0.799454
6434.869,0.813125
6506.872,0.828658
6580.501,0.850016
6655.812,0.833723
6732.864,0.833708
6811.718,0.844633
6892.437,0.849971
6975.089,0.859255
7059.743,0.866353
7146.475,0.881749
7235.36,0.877732
7326.481,0.893436
7419.922,0.892866
7515.774,0.900098
7614.131,0.907883
7715.093,0.912676
7818.764,0.918346
7925.254,0.926019
8034.682,0.9318501
8147.169,0.937386
8262.847,0.9419968
8381.852,0.94672
8504.331,0.951364
8630.437,0.955512
8760.335,0.959618
8894.198,0.963713
9032.21,0.966755
9174.568,0.967823
9321.48,0.968181
9473.167,0.969906
9629.868,0.971977
9791.834,0.973843
9959.336,0.976165
10132.662,0.978574
10312.121,0.9808265
10498.045,0.982458
10690.79,0.983165
10890.738,0.984261
11098.301,0.9842544
11313.921,0.984992
11538.079,0.985214
11771.29,0.985812
12014.114,0.986143
12267.16,0.985907
12531.086,0.986533
12806.608,0.987194
13094.51,0.9873376
13395.644,0.987564
13710.943,0.9874938
14041.433,0.984917
14388.237,0.980218
14752.594,0.966137
15135.871,0.925567
15539.583,0.783249
15965.407,0.536841