File: csv_library/FTIR_MET_44_1.csv
Database of Origin,University of Winnipeg Spectrophotometer Facility
Sample Description,16.7. Meteorites - Ordinary chondrites 16.7.4. NASA samples D&P 102F FTIR spectra - LAP04840 ordinary chondrite
Other Information,LAP 04 840 Bulk Sample 50W QTH 8mm spot
Date Added,2018-07-23 23:46:34.8559

Data ID,FTIR_MET_44_1
Sample ID,LAP04840
Mineral Name,Ordinary Chondrite
Grain Size,bulk powder
Viewing Geometry,30/0
Resolution,6 cm-1
Composition,Amphibole bearing

Wavelength
2000.56,0.118886
2006.983,0.11831
2013.447,0.117729
2019.952,0.117836
2026.499,0.116882
2033.087,0.1163253
2039.718,0.116081
2046.391,0.114816
2053.107,0.114321
2059.867,0.113984
2066.671,0.113336
2073.519,0.113027
2080.412,0.112877
2087.35,0.112248
2094.334,0.111885
2101.364,0.111631
2108.441,0.111148
2115.565,0.109904
2122.736,0.109552
2129.956,0.109489
2137.224,0.108495
2144.541,0.108277
2151.907,0.108046
2159.324,0.108071
2166.791,0.108266
2174.309,0.107899
2181.879,0.107396
2189.501,0.107402
2197.175,0.1074517
2204.903,0.107337
2212.685,0.107282
2220.521,0.107341
2228.412,0.106853
2236.359,0.106435
2244.361,0.105898
2252.421,0.105936
2260.537,0.105325
2268.712,0.105125
2276.945,0.104375
2285.237,0.104596
2293.59,0.104406
2302.002,0.103859
2310.476,0.103594
2319.012,0.103266
2327.61,0.1040142
2336.272,0.104397
2344.997,0.10422
2353.787,0.104125
2362.643,0.1041004
2371.564,0.103931
2380.553,0.103456
2389.609,0.103423
2398.733,0.103675
2407.926,0.103626
2417.19,0.10353
2426.524,0.103432
2435.93,0.103986
2445.408,0.104096
2454.959,0.104002
2464.585,0.104123
2474.285,0.10429
2484.062,0.104319
2493.915,0.104719
2503.845,0.1051951
2513.855,0.105408
2523.944,0.105891
2534.113,0.10727
2544.364,0.108227
2554.697,0.107303
2565.113,0.111134
2575.615,0.113032
2586.201,0.114732
2596.874,0.116343
2607.635,0.115981
2618.485,0.118761
2629.424,0.118351
2640.454,0.109985
2651.576,0.112671
2662.792,0.117934
2674.102,0.120083
2685.507,0.116817
2697.01,0.120266
2708.61,0.135447
2720.31,0.156497
2732.111,0.110636
2744.013,0.09647523
2756.019,0.09332322
2768.129,0.0830325
2780.345,0.07779431
2792.669,0.07310378
2805.102,0.07226638
2817.645,0.06766121
2830.299,0.06465863
2843.067,0.06229418
2855.95,0.06043538
2868.949,0.0586997
2882.066,0.05701297
2895.303,0.05514763
2908.661,0.05418055
2922.142,0.05317654
2935.747,0.05178091
2949.479,0.05234288
2963.339,0.05014348
2977.328,0.05111149
2991.45,0.04991865
3005.705,0.04948924
3020.096,0.0492423
3034.624,0.05113036
3049.292,0.05009207
3064.101,0.05115941
3079.054,0.0505487
3094.153,0.05040314
3109.399,0.05035332
3124.795,0.05047772
3140.344,0.05088917
3156.047,0.05118804
3171.907,0.0518481
3187.926,0.05270243
3204.106,0.05380444
3220.451,0.05618904
3236.963,0.05564113
3253.643,0.05841555
3270.495,0.05825311
3287.522,0.05899784
3304.726,0.06014356
3322.11,0.0611023
3339.676,0.06141499
3357.429,0.06277583
3375.37,0.06383683
3393.502,0.06512484
3411.83,0.06680087
3430.355,0.06821016
3449.082,0.07028762
3468.013,0.07121652
3487.152,0.07259963
3506.502,0.07385637
3526.067,0.0751447
3545.851,0.07675559
3565.856,0.07816284
3586.088,0.07998852
3606.549,0.08079457
3627.244,0.08235035
3648.176,0.08406645
3669.351,0.085544
3690.771,0.08764293
3712.442,0.09000313
3734.368,0.09252156
3756.553,0.09552507
3779.001,0.09828297
3801.719,0.101457
3824.71,0.1045306
3847.98,0.107959
3871.533,0.111646
3895.375,0.115162
3919.512,0.118669
3943.948,0.122992
3968.689,0.128512
3993.742,0.133579
4019.111,0.138227
4044.804,0.143903
4070.825,0.15084
4097.183,0.159121
4123.882,0.16799
4150.931,0.17791
4178.335,0.189394
4206.102,0.218949
4234.24,0.303427
4262.754,0.271907
4291.655,0.305761
4320.948,0.290918
4350.642,0.284632
4380.746,0.294368
4411.268,0.312629
4442.217,0.329593
4473.602,0.34329
4505.431,0.353903
4537.716,0.365331
4570.465,0.377868
4603.688,0.39032
4637.397,0.404391
4671.601,0.419127
4706.312,0.43481
4741.541,0.4500575
4777.299,0.464005
4813.6,0.477439
4850.455,0.490143
4887.876,0.5018381
4925.878,0.513191
4964.474,0.52501
5003.678,0.535568
5043.504,0.5451307
5083.967,0.560735
5125.083,0.56802
5166.868,0.579055
5209.338,0.602761
5252.51,0.603576
5296.401,0.622624
5341.031,0.637832
5386.417,0.644591
5432.579,0.6953662
5479.537,0.921164
5527.312,0.0158884
5575.925,0.145726
5625.399,0.2934
5675.757,0.370223
5727.022,0.418173
5779.22,0.451495
5832.376,0.480935
5886.517,0.506013
5941.67,0.527419
5997.864,0.541307
6055.129,0.55204
6113.495,0.564426
6172.996,0.579298
6233.663,0.600529
6295.533,0.61711
6358.64,0.634665
6423.023,0.651789
6488.721,0.668189
6555.774,0.685508
6624.224,0.704076
6694.117,0.708075
6765.497,0.719437
6838.413,0.727547
6912.916,0.73371
6989.057,0.74655
7066.891,0.757157
7146.475,0.772904
7227.869,0.7820651
7311.135,0.795563
7396.34,0.805105
7483.55,0.8169339
7572.838,0.826745
7664.28,0.833918
7757.953,0.842448
7853.942,0.850217
7952.331,0.858301
8053.214,0.8675215
8156.686,0.874468
8262.847,0.879729
8371.804,0.885205
8483.67,0.88982
8598.562,0.894455
8716.604,0.899036
8837.928,0.903758
8962.673,0.908001
9090.986,0.9091739
9223.022,0.90804
9358.945,0.908821
9498.929,0.912792
9643.16,0.9181
9791.834,0.922977
9945.159,0.92771
10103.357,0.931076
10266.663,0.934066
10435.331,0.936599
10609.627,0.935965
10789.839,0.93396
10976.272,0.93192
11169.256,0.929323
11369.141,0.928284
11576.304,0.927756
11791.15,0.927371
12014.114,0.926548
12245.667,0.924097
12486.313,0.922561
12736.599,0.92296
12997.116,0.921289
13268.505,0.917111
13551.461,0.910946
13846.739,0.901582
14155.163,0.883588
14477.629,0.848402
14815.121,0.779736
15168.712,0.634675
15539.583,0.378493
15929.033,0.188567
15965.407,0.177762