File: csv_library/FTIR_OLI_01.csv
Database of Origin,University of Winnipeg Spectrophotometer Facility
Sample Description,FTIR spectra of Olivnes from PSF sample database See Master Olivines in PSF sample database for additional info
Date Added,2016-12-06 04:17:21.4966

Data ID,FTIR_OLI_01
Sample ID,olv102m
Mineral Name,Olivine
Grain Size,<45 um
Viewing Geometry,"i=30, e=0?"
Resolution,~1.5 cm-1
Material Class,Nesosilicate

Wavelength
1999.978,0.82306
2006.397,0.819373
2012.858,0.81534
2019.359,0.812719
2025.902,0.810485
2032.486,0.809618
2039.113,0.807614
2045.782,0.805906
2052.495,0.805682
2059.251,0.80445
2066.051,0.802559
2072.895,0.8019431
2079.784,0.79843
2086.718,0.795975
2093.697,0.794411
2100.723,0.797264
2107.796,0.804397
2114.915,0.808888
2122.082,0.804772
2129.297,0.792974
2136.561,0.7974911
2143.873,0.796571
2151.235,0.794567
2158.647,0.785871
2166.11,0.780696
2173.624,0.776222
2181.189,0.773567
2188.806,0.772066
2196.476,0.7710942
2204.199,0.7690126
2211.975,0.763875
2219.806,0.757874
2227.692,0.751162
2235.634,0.742277
2243.631,0.7363094
2251.686,0.730404
2259.797,0.724971
2267.966,0.713336
2276.194,0.709658
2284.481,0.707571
2292.828,0.69986
2301.235,0.691224
2309.703,0.683141
2318.234,0.672103
2326.826,0.667539
2335.482,0.665825
2344.201,0.6778098
2352.986,0.684373
2361.835,0.684562
2370.751,0.678807
2379.733,0.675978
2388.783,0.673645
2397.901,0.671152
2407.088,0.668203
2416.345,0.6668889
2425.673,0.664407
2435.072,0.6589026
2444.543,0.660391
2454.088,0.659771
2463.707,0.656425
2473.4,0.65079
2483.17,0.645401
2493.016,0.64521
2502.939,0.638237
2512.942,0.640774
2523.023,0.64703
2533.185,0.655322
2543.428,0.659136
2553.754,0.655019
2564.163,0.687273
2574.656,0.689241
2585.235,0.70012
2595.9,0.758667
2606.653,0.715705
2617.495,0.718287
2628.426,0.703963
2639.447,0.646724
2650.561,0.647195
2661.768,0.660414
2673.07,0.669796
2684.467,0.596172
2695.96,0.444807
2707.552,0.265419
2719.242,0.30398
2731.034,0.295868
2742.927,0.333807
2754.923,0.376811
2767.024,0.3591422
2779.23,0.357273
2791.544,0.360867
2803.967,0.405136
2816.5,0.386391
2829.144,0.393605
2841.902,0.401677
2854.774,0.412313
2867.763,0.407086
2880.869,0.403972
2894.095,0.402333
2907.441,0.401644
2920.911,0.397196
2934.505,0.393826
2948.225,0.392713
2962.073,0.38913
2976.051,0.390256
2990.161,0.39056
3004.404,0.390284
3018.782,0.390564
3033.298,0.391338
3047.953,0.391355
3062.749,0.391667
3077.689,0.39199
3092.774,0.393626
3108.007,0.394213
3123.389,0.393932
3138.924,0.39259
3154.613,0.391948
3170.458,0.3907228
3186.463,0.389765
3202.629,0.390543
3218.958,0.389133
3235.455,0.386242
3252.12,0.385738
3268.956,0.384566
3285.967,0.383794
3303.155,0.384496
3320.522,0.384573
3338.072,0.385124
3355.807,0.387622
3373.731,0.389814
3391.846,0.388886
3410.156,0.385779
3428.663,0.390918
3447.371,0.397829
3466.283,0.401703
3485.403,0.405904
3504.734,0.409768
3524.28,0.421064
3544.043,0.428142
3564.028,0.434985
3584.239,0.441131
3604.679,0.44732
3625.353,0.453687
3646.263,0.460707
3667.416,0.467393
3688.814,0.474248
3710.461,0.482256
3732.364,0.48856
3754.525,0.4941891
3776.95,0.499335
3799.643,0.503133
3822.609,0.507716
3845.853,0.512227
3869.38,0.51405
3893.196,0.516566
3917.305,0.518176
3941.714,0.520274
3966.427,0.522692
3991.451,0.52675
4016.791,0.5298675
4042.454,0.5339532
4068.446,0.537056
4094.773,0.53977
4121.441,0.542273
4148.457,0.545582
4175.829,0.550815
4203.563,0.587882
4231.666,0.844422
4260.146,0.657002
4289.011,0.731148
4318.268,0.641915
4347.926,0.592519
4377.992,0.581819
4408.476,0.585228
4439.386,0.587631
4470.73,0.587297
4502.519,0.58893
4534.762,0.588996
4567.468,0.589423
4600.648,0.589406
4634.312,0.591488
4668.471,0.593853
4703.135,0.598248
4738.316,0.599156
4774.026,0.601213
4810.277,0.598893
4847.081,0.59767
4884.451,0.5793599
4922.399,0.560702
4960.941,0.56394
5000.088,0.572459
5039.857,0.580432
5080.262,0.586066
5121.318,0.584884
5163.041,0.583921
5205.448,0.587029
5248.555,0.587301
5292.381,0.598271
5336.942,0.600069
5382.259,0.603454
5428.349,0.65889
5475.234,0.010728
5522.934,0.722842
5571.47,0.07462093
5620.865,0.143064
5671.142,0.203867
5722.324,0.24592
5774.436,0.2750721
5827.503,0.2988819
5881.553,0.316273
5936.613,0.334523
5992.711,0.350467
6049.878,0.356267
6108.143,0.373529
6167.539,0.388883
6228.099,0.411201
6289.858,0.429764
6352.851,0.442578
6417.116,0.451156
6482.693,0.467068
6549.621,0.489158
6617.943,0.505661
6687.702,0.516339
6758.945,0.527889
6831.72,0.535373
6906.076,0.546083
6982.066,0.558625
7059.743,0.571234
7139.166,0.585049
7220.393,0.601532
7303.487,0.618372
7388.512,0.631764
7475.537,0.648379
7564.633,0.662082
7655.876,0.675377
7749.343,0.687358
7845.117,0.698707
7943.285,0.708546
8043.937,0.722105
8147.169,0.731199
8253.082,0.738901
8361.781,0.745477
8473.377,0.751568
8587.989,0.759213
8705.739,0.766966
8826.76,0.774855
8951.188,0.781379
9079.17,0.785333
9210.86,0.786712
9346.423,0.792434
9486.031,0.801013
9629.868,0.810183
9778.129,0.818951
9931.022,0.82953
10088.768,0.838864
10251.6,0.844315
10419.769,0.848992
10593.542,0.852305
10773.203,0.851591
10959.058,0.849211
11151.432,0.845333
11350.675,0.8422734
11557.16,0.841785
11771.29,0.841328
11993.497,0.8416761
12224.249,0.839079
12464.046,0.839144
12713.432,0.841521
12972.993,0.8408711
13243.366,0.834335
13525.24,0.826123
13819.365,0.815918
14126.558,0.794499
14447.709,0.7524006
14783.791,0.667489
15135.871,0.5114581
15505.12,0.278153
15892.824,0.142461
15965.407,0.130415