File: csv_library/FTIR_PLG_03.csv
Database of Origin,University of Winnipeg Spectrophotometer Facility
Sample Description,IR Reflectance spectra of plagioclase with a Bruker Vertex 70 FTIR. See Master Plagioclase in PSF database for additional info.
Date Added,2016-11-22 04:00:06.290404

Data ID,FTIR_PLG_03
Sample ID,PLG108
Mineral Name,Plagioclase
Grain Size,<45 um
Viewing Geometry,"i30, e0"
Resolution,7.71cm-1
Material Class,Tectosilicate

Wavelength
1670.16,0.55572
1676.64,0.55495
1683.18,0.55645
1689.76,0.5547
1696.39,0.5544
1703.08,0.55532
1709.82,0.55482
1716.62,0.55516
1723.46,0.55465
1730.37,0.55491
1737.33,0.55463
1744.34,0.5547
1751.41,0.55438
1758.54,0.5547
1765.73,0.554
1772.98,0.55387
1780.28,0.55372
1787.65,0.55391
1795.08,0.55321
1802.57,0.5539
1810.12,0.55445
1817.73,0.55487
1825.42,0.55561
1833.16,0.55668
1840.97,0.55826
1848.85,0.55722
1856.8,0.55732
1864.81,0.55551
1872.9,0.55896
1881.05,0.55301
1889.28,0.55349
1897.58,0.55452
1905.95,0.55264
1914.39,0.5512
1922.92,0.55085
1931.51,0.54993
1940.19,0.54979
1948.94,0.54912
1957.77,0.54922
1966.68,0.54947
1975.68,0.54968
1984.76,0.54997
1993.92,0.54987
2003.16,0.55051
2012.49,0.55068
2021.91,0.55026
2031.42,0.55088
2041.02,0.55098
2050.7,0.5509
2060.48,0.55093
2070.36,0.551
2080.33,0.55122
2090.4,0.55086
2100.56,0.5513
2110.82,0.55136
2121.19,0.55091
2131.65,0.55075
2142.22,0.55117
2152.9,0.5504
2163.68,0.55023
2174.57,0.55001
2185.57,0.54973
2196.69,0.54927
2207.91,0.54882
2219.26,0.54903
2230.71,0.54818
2242.29,0.54828
2253.99,0.54743
2265.813,0.54716
2277.76,0.54728
2289.83,0.54655
2302.03,0.54588
2314.37,0.54461
2326.83,0.54466
2339.43,0.54464
2352.17,0.54455
2365.05,0.54541
2378.06,0.54505
2391.23,0.54481
2404.54,0.54435
2417.99,0.54386
2431.6,0.54337
2445.37,0.54251
2459.29,0.54219
2473.37,0.5412
2487.61,0.54105
2502.02,0.54018
2516.59,0.54018
2531.34,0.54135
2546.26,0.54299
2561.35,0.547
2576.63,0.54921
2592.09,0.55347
2607.74,0.55398
2623.57,0.55064
2639.6,0.54138
2655.83,0.54428
2672.26,0.55214
2688.89,0.52616
2705.73,0.49224
2722.78,0.44245
2740.05,0.40774
2757.54,0.38297
2775.26,0.37221
2793.2,0.35925
2811.38,0.35137
2829.79,0.34783
2848.45,0.34641
2867.36,0.34504
2886.51,0.34134
2905.93,0.33829
2925.61,0.33619
2945.56,0.33753
2965.78,0.34047
2986.28,0.346
3007.07,0.35337
3028.14,0.36074
3049.52,0.36703
3071.2,0.37216
3093.19,0.37887
3115.49,0.38517
3138.12,0.39372
3161.09,0.40095
3184.39,0.40922
3208.03,0.41704
3232.03,0.42473
3256.39,0.43151
3281.13,0.43804
3306.24,0.44383
3331.74,0.44853
3357.63,0.44981
3383.93,0.45537
3410.64,0.46017
3437.79,0.46671
3465.36,0.46799
3493.38,0.47164
3521.86,0.481
3550.81,0.48641
3580.23,0.49043
3610.15,0.49378
3640.58,0.49649
3671.52,0.4987
3702.99,0.5011
3735,0.50282
3767.57,0.50472
3800.72,0.50436
3834.45,0.50072
3868.79,0.49778
3903.75,0.49601
3939.35,0.49049
3975.6,0.47868
4012.52,0.48886
4050.14,0.49451
4088.47,0.49396
4127.53,0.49136
4167.35,0.48812
4207.94,0.50163
4249.33,0.50857
4291.54,0.49353
4334.6,0.45681
4378.53,0.44155
4423.36,0.43622
4469.12,0.43128
4515.84,0.42152
4563.54,0.40744
4612.26,0.39039
4662.03,0.37462
4712.89,0.36134
4764.87,0.34844
4818.01,0.3364
4872.35,0.32541
4927.93,0.31343
4984.79,0.29996
5042.98,0.28621
5102.54,0.27225
5163.53,0.25666
5225.99,0.24399
5289.98,0.22992
5355.56,0.2176
5422.78,0.20343
5491.72,0.19624
5562.43,0.19705
5634.98,0.19385
5709.45,0.18604
5785.92,0.17334
5864.46,0.15913
5945.16,0.14131
6028.12,0.12893
6113.42,0.12436
6201.17,0.12184
6291.48,0.12011
6384.46,0.12382
6480.23,0.12112
6578.91,0.11234
6680.64,0.09962
6785.58,0.09154
6893.86,0.08559
7005.65,0.08291
7121.13,0.08015
7240.48,0.07505
7363.89,0.06628
7491.59,0.05505
7623.79,0.04422
7760.75,0.03418
7902.71,0.02631
8049.97,0.02249
8202.82,0.02419
8361.58,0.03176
8526.61,0.03583
8698.29,0.03732
8877.02,0.0381
9063.25,0.03471
9257.46,0.03022
9460.18,0.03271
9671.98,0.0406
9893.47,0.04052
10125.4,0.04144
10368.4,0.04697
10623.3,0.05397
10891.1,0.05474
11172.8,0.05318
11469.4,0.05943
11782.2,0.06656
12112.6,0.07189
12462,0.05503
12832.1,0.03185
13224.9,0.02992
13642.6,0.03032
14087.4,0.03124
14562.3,0.02717
15070.3,0.02829
15615,0.03879
16200.6,0.03917
16831.8,0.04568
17514.1,0.04063
18254.2,0.04367
19059.5,0.04518
19939.2,0.04183
20904,0.03523
21966.9,0.03951
23143.7,0.03895
24453.7,0.03758
25412.6,0.05883