File: csv_library/FTIR_PLG_11.csv
Database of Origin,University of Winnipeg Spectrophotometer Facility
Sample Description,IR Reflectance spectra of plagioclase with a Bruker Vertex 70 FTIR. See Master Plagioclase in PSF database for additional info.
Date Added,2016-11-22 04:00:06.421853

Data ID,FTIR_PLG_11
Sample ID,PLG130
Mineral Name,Plagioclase
Grain Size,250-500 um
Viewing Geometry,"i30, e0"
Resolution,7.71cm-1
Material Class,Tectosilicate

Wavelength
1670.16,0.38394
1676.64,0.38417
1683.18,0.38374
1689.76,0.38458
1696.39,0.38387
1703.08,0.38365
1709.82,0.38332
1716.62,0.38341
1723.46,0.38278
1730.37,0.38199
1737.33,0.38205
1744.34,0.38112
1751.41,0.38016
1758.54,0.37993
1765.73,0.37986
1772.98,0.38045
1780.28,0.38051
1787.65,0.38121
1795.08,0.38074
1802.57,0.38147
1810.12,0.38191
1817.73,0.38406
1825.42,0.38488
1833.16,0.38593
1840.97,0.38784
1848.85,0.38494
1856.8,0.38318
1864.81,0.37898
1872.9,0.38023
1881.05,0.36486
1889.28,0.35363
1897.58,0.33735
1905.95,0.3174
1914.39,0.29612
1922.92,0.27979
1931.51,0.26529
1940.19,0.2567
1948.94,0.25359
1957.77,0.25519
1966.68,0.25837
1975.68,0.26289
1984.76,0.26934
1993.92,0.27784
2003.16,0.28612
2012.49,0.29585
2021.91,0.30322
2031.42,0.30859
2041.02,0.31389
2050.7,0.31772
2060.48,0.32181
2070.36,0.32581
2080.33,0.32997
2090.4,0.33445
2100.56,0.3378
2110.82,0.34093
2121.19,0.34408
2131.65,0.34665
2142.22,0.34937
2152.9,0.35144
2163.68,0.35343
2174.57,0.35551
2185.57,0.35785
2196.69,0.35996
2207.91,0.36195
2219.26,0.36378
2230.71,0.36506
2242.29,0.36664
2253.99,0.36744
2265.813,0.36805
2277.76,0.36805
2289.83,0.36654
2302.03,0.36476
2314.37,0.36233
2326.83,0.35819
2339.43,0.35237
2352.17,0.34558
2365.05,0.33673
2378.06,0.32565
2391.23,0.31163
2404.54,0.29848
2417.99,0.28757
2431.6,0.27956
2445.37,0.27405
2459.29,0.26956
2473.37,0.2664
2487.61,0.26513
2502.02,0.26419
2516.59,0.26454
2531.34,0.26612
2546.26,0.2678
2561.35,0.2709
2576.63,0.27133
2592.09,0.27255
2607.74,0.26763
2623.57,0.25725
2639.6,0.24013
2655.83,0.23326
2672.26,0.22931
2688.89,0.19297
2705.73,0.15886
2722.78,0.12439
2740.05,0.09149
2757.54,0.06834
2775.26,0.05557
2793.2,0.04845
2811.38,0.04524
2829.79,0.04271
2848.45,0.04115
2867.36,0.04017
2886.51,0.03966
2905.93,0.03891
2925.61,0.03795
2945.56,0.0377
2965.78,0.03783
2986.28,0.03851
3007.07,0.03914
3028.14,0.03877
3049.52,0.03831
3071.2,0.0387
3093.19,0.03957
3115.49,0.04193
3138.12,0.04405
3161.09,0.04688
3184.39,0.0498
3208.03,0.05341
3232.03,0.05743
3256.39,0.06157
3281.13,0.06662
3306.24,0.07255
3331.74,0.07897
3357.63,0.08601
3383.93,0.09305
3410.64,0.10127
3437.79,0.11034
3465.36,0.11942
3493.38,0.12834
3521.86,0.13845
3550.81,0.14773
3580.23,0.15657
3610.15,0.16482
3640.58,0.17259
3671.52,0.17953
3702.99,0.18618
3735,0.19178
3767.57,0.19746
3800.72,0.20198
3834.45,0.20521
3868.79,0.20664
3903.75,0.20742
3939.35,0.20695
3975.6,0.20461
4012.52,0.20048
4050.14,0.19397
4088.47,0.18503
4127.53,0.17515
4167.35,0.16394
4207.94,0.16191
4249.33,0.15446
4291.54,0.13257
4334.6,0.10468
4378.53,0.09351
4423.36,0.09026
4469.12,0.08886
4515.84,0.08508
4563.54,0.07889
4612.26,0.07085
4662.03,0.06325
4712.89,0.05695
4764.87,0.05257
4818.01,0.04738
4872.35,0.04426
4927.93,0.04085
4984.79,0.03754
5042.98,0.0338
5102.54,0.03
5163.53,0.02708
5225.99,0.02486
5289.98,0.02286
5355.56,0.02165
5422.78,0.02048
5491.72,0.01982
5562.43,0.01936
5634.98,0.01884
5709.45,0.01816
5785.92,0.01679
5864.46,0.01606
5945.16,0.01521
6028.12,0.01455
6113.42,0.01394
6201.17,0.01303
6291.48,0.01225
6384.46,0.01317
6480.23,0.01349
6578.91,0.01298
6680.64,0.01185
6785.58,0.01039
6893.86,0.00981
7005.65,0.00924
7121.13,0.00848
7240.48,0.00749
7363.89,0.00672
7491.59,0.00591
7623.79,0.00503
7760.75,0.00411
7902.71,0.00338
8049.97,0.0035
8202.82,0.00646
8361.58,0.01949
8526.61,0.0289
8698.29,0.03277
8877.02,0.03722
9063.25,0.03539
9257.46,0.02999
9460.18,0.0339
9671.98,0.04413
9893.47,0.05059
10125.4,0.0513
10368.4,0.05554
10623.3,0.06049
10891.1,0.05751
11172.8,0.04743
11469.4,0.037
11782.2,0.03109
12112.6,0.02528
12462,0.01946
12832.1,0.01736
13224.9,0.01892
13642.6,0.01926
14087.4,0.01693
14562.3,0.01471
15070.3,0.01619
15615,0.03446
16200.6,0.03926
16831.8,0.04673
17514.1,0.04381
18254.2,0.04152
19059.5,0.03793
19939.2,0.02645
20904,0.02712
21966.9,0.02427
23143.7,0.0355
24453.7,0.06149
25412.6,0.06531