File: csv_library/FTIR_PYX_15.csv
Database of Origin,University of Winnipeg Spectrophotometer Facility
Sample Description,"HOSERLab master pyroxenes, FTIR data"
Date Added,2016-12-14 03:34:49.9683

Data ID,FTIR_PYX_15
Sample ID,PYX117
Mineral Name,Orthopyroxene
Grain Size,<45 um
Viewing Geometry,"i=30, e=0"
Material Class,Inosilicate

Wavelength
2000.56,0.368194
2006.983,0.371952
2013.447,0.37577
2019.952,0.37956
2026.499,0.382842
2033.087,0.386838
2039.718,0.3923089
2046.391,0.396804
2053.107,0.401519
2059.867,0.406952
2066.671,0.4124202
2073.519,0.418313
2080.412,0.423674
2087.35,0.4298917
2094.334,0.436144
2101.364,0.443376
2108.441,0.448704
2115.565,0.4552623
2122.736,0.4628745
2129.956,0.469495
2137.224,0.477068
2144.541,0.485024
2151.907,0.492203
2159.324,0.499114
2166.791,0.507095
2174.309,0.514587
2181.879,0.522617
2189.501,0.531529
2197.175,0.539943
2204.903,0.5481882
2212.685,0.556637
2220.521,0.564145
2228.412,0.571294
2236.359,0.5779502
2244.361,0.5844
2252.421,0.591403
2260.537,0.598945
2268.712,0.605867
2276.945,0.61369
2285.237,0.620127
2293.59,0.626684
2302.002,0.633205
2310.476,0.640281
2319.012,0.646109
2327.61,0.652511
2336.272,0.6585957
2344.997,0.664214
2353.787,0.670302
2362.643,0.6754825
2371.564,0.679586
2380.553,0.684423
2389.609,0.6889189
2398.733,0.693032
2407.926,0.69683
2417.19,0.700235
2426.524,0.703715
2435.93,0.70648
2445.408,0.709536
2454.959,0.711242
2464.585,0.7143
2474.285,0.715977
2484.062,0.71785
2493.915,0.719362
2503.845,0.720993
2513.855,0.722486
2523.944,0.723041
2534.113,0.722642
2544.364,0.722552
2554.697,0.724384
2565.113,0.720859
2575.615,0.721645
2586.201,0.719667
2596.874,0.717386
2607.635,0.718709
2618.485,0.717829
2629.424,0.719995
2640.454,0.723719
2651.576,0.72315
2662.792,0.719365
2674.102,0.715735
2685.507,0.715693
2697.01,0.715142
2708.61,0.710037
2720.31,0.692327
2732.111,0.676285
2744.013,0.651209
2756.019,0.628858
2768.129,0.60577
2780.345,0.583482
2792.669,0.560908
2805.102,0.518528
2817.645,0.510037
2830.299,0.513937
2843.067,0.466278
2855.95,0.466727
2868.949,0.507376
2882.066,0.515545
2895.303,0.512429
2908.661,0.500368
2922.142,0.482996
2935.747,0.478474
2949.479,0.487422
2963.339,0.4923746
2977.328,0.494528
2991.45,0.493121
3005.705,0.491862
3020.096,0.490848
3034.624,0.49244
3049.292,0.490507
3064.101,0.489801
3079.054,0.487769
3094.153,0.486117
3109.399,0.484815
3124.795,0.486706
3140.344,0.489752
3156.047,0.493308
3171.907,0.4956889
3187.926,0.497002
3204.106,0.497868
3220.451,0.498786
3236.963,0.497909
3253.643,0.49915
3270.495,0.499393
3287.522,0.50162
3304.726,0.5039721
3322.11,0.506667
3339.676,0.508812
3357.429,0.508685
3375.37,0.499706
3393.502,0.500816
3411.83,0.485014
3430.355,0.492782
3449.082,0.505804
3468.013,0.510635
3487.152,0.508515
3506.502,0.501732
3526.067,0.51749
3545.851,0.520374
3565.856,0.5210543
3586.088,0.521516
3606.549,0.520261
3627.244,0.520522
3648.176,0.520215
3669.351,0.519036
3690.771,0.518627
3712.442,0.517916
3734.368,0.5179
3756.553,0.518238
3779.001,0.517925
3801.719,0.5176153
3824.71,0.516877
3847.98,0.516765
3871.533,0.517184
3895.375,0.518321
3919.512,0.5190568
3943.948,0.519611
3968.689,0.521817
3993.742,0.523506
4019.111,0.5247021
4044.804,0.526371
4070.825,0.529162
4097.183,0.532444
4123.882,0.5361913
4150.931,0.540886
4178.335,0.54548
4206.102,0.56254
4234.24,0.60906
4262.754,0.59416
4291.655,0.612827
4320.948,0.604261
4350.642,0.599972
4380.746,0.606677
4411.268,0.619129
4442.217,0.630165
4473.602,0.638961
4505.431,0.646161
4537.716,0.652181
4570.465,0.658761
4603.688,0.664996
4637.397,0.66712
4671.601,0.670884
4706.312,0.676419
4741.541,0.6840225
4777.299,0.692307
4813.6,0.69737
4850.455,0.701468
4887.876,0.70835
4925.878,0.716917
4964.474,0.72489
5003.678,0.73136
5043.504,0.73722
5083.967,0.742515
5125.083,0.745267
5166.868,0.7518982
5209.338,0.77019
5252.51,0.7789356
5296.401,0.79511
5341.031,0.807853
5386.417,0.810541
5432.579,0.820747
5479.537,0.8393801
5527.312,0.873407
5575.925,0.656565
5625.399,0.794585
5675.757,0.811594
5727.022,0.8291248
5779.22,0.842154
5832.376,0.856237
5886.517,0.872418
5941.67,0.873644
5997.864,0.871796
6055.129,0.885828
6113.495,0.8899707
6172.996,0.8923271
6233.663,0.8934
6295.533,0.896914
6358.64,0.908729
6423.023,0.917127
6488.721,0.924868
6555.774,0.9268532
6624.224,0.935516
6694.117,0.933853
6765.497,0.939013
6838.413,0.94204
6912.916,0.94223
6989.057,0.946763
7066.891,0.950486
7146.475,0.955834
7227.869,0.956495
7311.135,0.960073
7396.34,0.963272
7483.55,0.96648
7572.838,0.968499
7664.28,0.968911
7757.953,0.970914
7853.942,0.9741286
7952.331,0.977246
8053.214,0.9799433
8156.686,0.981442
8262.847,0.983716
8371.804,0.986647
8483.67,0.988789
8598.562,0.9911699
8716.604,0.995313
8837.928,0.0100084
8962.673,0.0100539
9090.986,0.0100536
9223.022,0.0100311
9358.945,0.0100273
9498.929,0.0100508
9643.16,0.0100583
9791.834,0.0100637
9945.159,0.0100592
10103.357,0.0100699
10266.663,0.0101018
10435.331,0.0101205
10609.627,0.0101253
10789.839,0.0101289
10976.272,0.0101314
11169.256,0.01013565
11369.141,0.0101296
11576.304,0.0101138
11791.15,0.0101103
12014.114,0.0101239
12245.667,0.0101236
12486.313,0.0101073
12736.599,0.0100956
12997.116,0.0101064
13268.505,0.01012522
13551.461,0.0101204
13846.739,0.0100861
14155.163,0.0100726
14477.629,0.0100595
14815.121,0.0100182
15168.712,0.986883
15539.583,0.918588
15929.033,0.779318
15965.407,0.766554