File: csv_library/FTIR_CARB_39_9.csv
Database of Origin,University of Winnipeg Spectrophotometer Facility
Sample Description,Carbonates and Oxolates -  D&P Spectra Reflectance spectra
Other Information,"Designs and Prototypes 102F spectra/Relative to infragold 1"" disk/Reflectance only"
Date Added,2018-08-06 21:11:30.497

Data ID,FTIR_CARB_39_9
Sample ID,CRB215
Mineral Name,hydromagnesite
Locality,Atlin/ British Columbia/ Canada
Grain Size,<45 um
Viewing Geometry,i=35/ e=0
Resolution,~3 cm-1
Formula,Mg5(CO3)4(OH)2*4(H2O)
Composition,XRD shows almost all hydromagnesite/ with a bit of magnesite.

Wavelength
2.001142,0.599332
2.008155,0.600298
2.015217,0.60276
2.022328,0.607547
2.029488,0.6117517
2.036698,0.6158842
2.043959,0.618852
2.051271,0.623541
2.058635,0.62434
2.066051,0.627441
2.073519,0.628366
2.081041,0.630185
2.088617,0.630936
2.096247,0.630242
2.103932,0.634861
2.111673,0.640279
2.119471,0.640948
2.127325,0.64164
2.135237,0.64282
2.143207,0.644948
2.151235,0.644269
2.159324,0.6450836
2.167472,0.645274
2.175682,0.643686
2.183952,0.6437729
2.192285,0.644006
2.200682,0.639321
2.209141,0.641665
2.217665,0.639489
2.226254,0.638445
2.23491,0.635255
2.243631,0.627502
2.252421,0.614459
2.261278,0.610758
2.270204,0.605492
2.279201,0.599741
2.288268,0.600565
2.297406,0.598318
2.306617,0.589328
2.315901,0.573213
2.325259,0.567028
2.334692,0.556564
2.344201,0.548794
2.353787,0.543718
2.363451,0.542878
2.373194,0.543549
2.383016,0.541128
2.392919,0.53817
2.402903,0.533572
2.412971,0.524235
2.423122,0.514203
2.433358,0.514039
2.443679,0.517455
2.454088,0.522979
2.464585,0.520572
2.475171,0.511749
2.485847,0.500704
2.496615,0.497111
2.507476,0.492483
2.518431,0.483715
2.52948,0.481094
2.540627,0.490128
2.55187,0.496371
2.563213,0.501655
2.574656,0.502738
2.586201,0.502362
2.597849,0.501109
2.609601,0.5006891
2.621459,0.496418
2.633424,0.486647
2.645498,0.480135
2.657682,0.468622
2.669978,0.4676
2.682387,0.442145
2.694911,0.428018
2.707552,0.392405
2.72031,0.370886
2.733188,0.271183
2.746188,0.106946
2.759311,0.22102
2.772559,0.1831167
2.785934,0.146738
2.799437,0.118401
2.813071,0.09107498
2.826837,0.05534086
2.840737,0.02757372
2.854774,0.0281105
2.868949,0.03176661
2.883265,0.02509025
2.897723,0.02234769
2.912325,0.02429178
2.927075,0.02777661
2.941973,0.03124117
2.957023,0.03749426
2.972226,0.04110635
2.987586,0.04797502
3.003103,0.05370241
3.018782,0.05510176
3.034624,0.06078178
3.050632,0.05821921
3.066809,0.06190185
3.083157,0.05878664
3.099679,0.0597264
3.116378,0.05712861
3.133257,0.05533206
3.150319,0.05536005
3.167566,0.05590937
3.185001,0.05548447
3.202629,0.05588907
3.220451,0.05827114
3.238472,0.05535971
3.256694,0.05875928
3.275122,0.05393813
3.293757,0.05483893
3.312605,0.05344064
3.331669,0.05752496
3.350952,0.05473073
3.370458,0.05370084
3.390191,0.05430362
3.410156,0.05712605
3.430355,0.05901695
3.450794,0.06484174
3.471477,0.07023323
3.492408,0.08019417
3.513592,0.08329103
3.535032,0.09460794
3.556735,0.09865816
3.578704,0.105594
3.600946,0.113303
3.623463,0.119334
3.646263,0.126359
3.669351,0.132884
3.692731,0.140816
3.716409,0.148073
3.740392,0.153536
3.764685,0.156788
3.789294,0.1608
3.814225,0.167936
3.839486,0.180692
3.865081,0.182951
3.891019,0.191126
3.917305,0.201524
3.943948,0.209023
3.970954,0.239612
3.99833,0.263576
4.026086,0.278394
4.054228,0.292419
4.082764,0.305971
4.111703,0.320378
4.141054,0.335067
4.170826,0.35184
4.201026,0.380736
4.231666,0.459698
4.262754,0.452429
4.294301,0.4798127
4.326317,0.476476
4.358811,0.474948
4.391796,0.491431
4.425282,0.512599
4.459281,0.530966
4.493805,0.546261
4.528865,0.562353
4.564475,0.577166
4.600648,0.592624
4.637397,0.608332
4.674735,0.6251577
4.712678,0.641204
4.75124,0.657286
4.790436,0.672401
4.830283,0.685269
4.870795,0.698478
4.911991,0.710512
4.953888,0.723712
4.996504,0.73284
5.039857,0.743835
5.083967,0.758716
5.128854,0.767198
5.174538,0.776726
5.221041,0.788947
5.268386,0.799119
5.316595,0.808077
5.365692,0.816618
5.415701,0.838118
5.46665,0.850922
5.518564,0.844541
5.57147,0.775544
5.625399,0.881933
5.680379,0.890146
5.736443,0.8976
5.793621,0.899008
5.851948,0.909733
5.911459,0.913593
5.97219,0.929158
6.034179,0.935913
6.097466,0.945172
6.162091,0.956936
6.228099,0.959661
6.295533,0.964087
6.36444,0.977313
6.434869,0.981935
6.506872,0.985265
6.580501,0.996478
6.655812,0.995512
6.732864,0.999301
6.811718,0.0100543
6.892437,0.0101125
6.975089,0.0101371
7.059743,0.010157
7.146475,0.0102197
7.23536,0.0102368
7.326481,0.0102731
7.419922,0.0102794
7.515774,0.0103059
7.614131,0.0103353
7.715093,0.0103591
7.818764,0.0103795
7.925254,0.0104072
8.034682,0.0104414
8.147169,0.0104766
8.262847,0.0105038
8.381852,0.0105304
8.504331,0.0105672
8.630437,0.0105963
8.760335,0.0106155
8.894198,0.0106532
9.03221,0.0106639
9.174568,0.0106709
9.32148,0.0106716
9.473167,0.0106812
9.629868,0.0106792
9.791834,0.0106881
9.959336,0.0106963
10.1327,0.010691
10.3121,0.0106865
10.498,0.0106873
10.69079,0.0106903
10.8907,0.010692
11.0983,0.0107031
11.3139,0.0106963
11.5381,0.01068577
11.77129,0.0106637
12.0141,0.0106425
12.26716,0.010643
12.5311,0.0106402
12.8066,0.0106364
13.09451,0.0106211
13.3956,0.0106016
13.7109,0.010585
14.0414,0.0105664
14.3882,0.0105023
14.7526,0.010387
15.1359,0.0101587
15.5396,0.940832
15.9654,0.7383172