File: csv_library/FTIR_PYX_10.csv
Database of Origin,University of Winnipeg Spectrophotometer Facility
Sample Description,"HOSERLab master pyroxenes, FTIR data"
Date Added,2016-12-14 03:34:49.8014

Data ID,FTIR_PYX_10
Sample ID,PYX108
Mineral Name,Orthopyroxene
Grain Size,45-90 um
Viewing Geometry,"i=30, e=0"
Material Class,Inosilicate

Wavelength
2000.56,0.350123
2006.983,0.352447
2013.447,0.355238
2019.952,0.356943
2026.499,0.359467
2033.087,0.361997
2039.718,0.36477
2046.391,0.367374
2053.107,0.36972
2059.867,0.3727684
2066.671,0.375686
2073.519,0.378071
2080.412,0.3805446
2087.35,0.383248
2094.334,0.386114
2101.364,0.389233
2108.441,0.390771
2115.565,0.39262
2122.736,0.394905
2129.956,0.39724
2137.224,0.4000386
2144.541,0.403174
2151.907,0.405085
2159.324,0.4069987
2166.791,0.409434
2174.309,0.412044
2181.879,0.413969
2189.501,0.416467
2197.175,0.417952
2204.903,0.419432
2212.685,0.421666
2220.521,0.422439
2228.412,0.422429
2236.359,0.421998
2244.361,0.4225992
2252.421,0.423118
2260.537,0.42282
2268.712,0.420278
2276.945,0.417811
2285.237,0.409384
2293.59,0.408135
2302.002,0.404434
2310.476,0.391265
2319.012,0.405913
2327.61,0.419247
2336.272,0.425718
2344.997,0.428919
2353.787,0.429326
2362.643,0.430579
2371.564,0.427039
2380.553,0.422657
2389.609,0.42308
2398.733,0.431159
2407.926,0.43717
2417.19,0.437933
2426.524,0.438113
2435.93,0.43865
2445.408,0.440169
2454.959,0.44121
2464.585,0.4415548
2474.285,0.444898
2484.062,0.44818
2493.915,0.449306
2503.845,0.451125
2513.855,0.452641
2523.944,0.454793
2534.113,0.457323
2544.364,0.459326
2554.697,0.4604257
2565.113,0.461634
2575.615,0.463812
2586.201,0.466459
2596.874,0.4672472
2607.635,0.469165
2618.485,0.472242
2629.424,0.474258
2640.454,0.473363
2651.576,0.474578
2662.792,0.473789
2674.102,0.462746
2685.507,0.419399
2697.01,0.364425
2708.61,0.298951
2720.31,0.237625
2732.111,0.2443188
2744.013,0.257309
2756.019,0.254
2768.129,0.248172
2780.345,0.244779
2792.669,0.24231
2805.102,0.238232
2817.645,0.24024
2830.299,0.242684
2843.067,0.23715
2855.95,0.241328
2868.949,0.2419512
2882.066,0.239399
2895.303,0.236049
2908.661,0.232717
2922.142,0.231222
2935.747,0.231061
2949.479,0.2349111
2963.339,0.2365919
2977.328,0.241991
2991.45,0.2449328
3005.705,0.247806
3020.096,0.250388
3034.624,0.255729
3049.292,0.257314
3064.101,0.260586
3079.054,0.26262
3094.153,0.26524
3109.399,0.267891
3124.795,0.271769
3140.344,0.275701
3156.047,0.280425
3171.907,0.286045
3187.926,0.291621
3204.106,0.297327
3220.451,0.30446
3236.963,0.308461
3253.643,0.3157462
3270.495,0.319746
3287.522,0.323982
3304.726,0.326923
3322.11,0.331963
3339.676,0.337604
3357.429,0.339626
3375.37,0.338737
3393.502,0.344128
3411.83,0.342574
3430.355,0.3517081
3449.082,0.364155
3468.013,0.37026
3487.152,0.371885
3506.502,0.374996
3526.067,0.389971
3545.851,0.397844
3565.856,0.403096
3586.088,0.408093
3606.549,0.411419
3627.244,0.415332
3648.176,0.419318
3669.351,0.422344
3690.771,0.425427
3712.442,0.4290989
3734.368,0.432825
3756.553,0.436315
3779.001,0.439167
3801.719,0.441522
3824.71,0.444813
3847.98,0.448361
3871.533,0.450758
3895.375,0.4541554
3919.512,0.456323
3943.948,0.458398
3968.689,0.462581
3993.742,0.466965
4019.111,0.469555
4044.804,0.472043
4070.825,0.476227
4097.183,0.480723
4123.882,0.485725
4150.931,0.491598
4178.335,0.497072
4206.102,0.516675
4234.24,0.563366
4262.754,0.5505716
4291.655,0.56851
4320.948,0.562611
4350.642,0.559178
4380.746,0.566864
4411.268,0.580523
4442.217,0.592371
4473.602,0.601481
4505.431,0.607563
4537.716,0.60988
4570.465,0.610439
4603.688,0.611069
4637.397,0.610174
4671.601,0.616763
4706.312,0.626835
4741.541,0.634055
4777.299,0.641346
4813.6,0.649037
4850.455,0.658211
4887.876,0.669028
4925.878,0.6802988
4964.474,0.691234
5003.678,0.697963
5043.504,0.703519
5083.967,0.710811
5125.083,0.714858
5166.868,0.7268057
5209.338,0.74838
5252.51,0.755528
5296.401,0.770536
5341.031,0.781923
5386.417,0.785351
5432.579,0.797206
5479.537,0.81977
5527.312,0.870391
5575.925,0.640343
5625.399,0.758284
5675.757,0.782123
5727.022,0.801279
5779.22,0.8174744
5832.376,0.832581
5886.517,0.852304
5941.67,0.854493
5997.864,0.852817
6055.129,0.867311
6113.495,0.872821
6172.996,0.876702
6233.663,0.881428
6295.533,0.887572
6358.64,0.900792
6423.023,0.910416
6488.721,0.919634
6555.774,0.921352
6624.224,0.931624
6694.117,0.929232
6765.497,0.93525
6838.413,0.938869
6912.916,0.939416
6989.057,0.944865
7066.891,0.94933
7146.475,0.955262
7227.869,0.957567
7311.135,0.962239
7396.34,0.966655
7483.55,0.970831
7572.838,0.973829
7664.28,0.975187
7757.953,0.978182
7853.942,0.982392
7952.331,0.986708
8053.214,0.990727
8156.686,0.99372
8262.847,0.997008
8371.804,0.01000754
8483.67,0.0100343
8598.562,0.0100546
8716.604,0.0100784
8837.928,0.0101119
8962.673,0.0101425
9090.986,0.0101396
9223.022,0.0101165
9358.945,0.0101079
9498.929,0.0101256
9643.16,0.0101425
9791.834,0.0101445
9945.159,0.0101469
10103.357,0.0101546
10266.663,0.0101819
10435.331,0.0101982
10609.627,0.0102022
10789.839,0.010201
10976.272,0.010211
11169.256,0.0102172
11369.141,0.0101973
11576.304,0.0101789
11791.15,0.0101743
12014.114,0.0101863
12245.667,0.0101893
12486.313,0.0101766
12736.599,0.0101704
12997.116,0.0101832
13268.505,0.0102052
13551.461,0.0102046
13846.739,0.0101742
14155.163,0.010165
14477.629,0.0101365
14815.121,0.0101132
15168.712,0.0100438
15539.583,0.959099
15929.033,0.821309
15965.407,0.804684