File: csv_library/FTIR_PYX_11.csv
Database of Origin,University of Winnipeg Spectrophotometer Facility
Sample Description,"HOSERLab master pyroxenes, FTIR data"
Date Added,2016-12-14 03:34:49.8332

Data ID,FTIR_PYX_11
Sample ID,PYX110
Mineral Name,Orthopyroxene
Grain Size,<45 um
Viewing Geometry,"i=30, e=0"
Material Class,Inosilicate

Wavelength
2000.56,0.454542
2006.983,0.457729
2013.447,0.461825
2019.952,0.465908
2026.499,0.469159
2033.087,0.4728302
2039.718,0.477296
2046.391,0.48136
2053.107,0.485677
2059.867,0.48998
2066.671,0.494404
2073.519,0.499094
2080.412,0.503228
2087.35,0.508217
2094.334,0.512975
2101.364,0.518543
2108.441,0.523537
2115.565,0.528638
2122.736,0.533522
2129.956,0.5382317
2137.224,0.5440088
2144.541,0.5487415
2151.907,0.553339
2159.324,0.557958
2166.791,0.563915
2174.309,0.568148
2181.879,0.572607
2189.501,0.577926
2197.175,0.582536
2204.903,0.587194
2212.685,0.591588
2220.521,0.595517
2228.412,0.597893
2236.359,0.601169
2244.361,0.60437
2252.421,0.607117
2260.537,0.610022
2268.712,0.610537
2276.945,0.611487
2285.237,0.60689
2293.59,0.609796
2302.002,0.609331
2310.476,0.60111
2319.012,0.612924
2327.61,0.62182
2336.272,0.6272122
2344.997,0.630751
2353.787,0.632646
2362.643,0.634788
2371.564,0.634011
2380.553,0.632969
2389.609,0.6329233
2398.733,0.63674
2407.926,0.640783
2417.19,0.642207
2426.524,0.6416062
2435.93,0.642306
2445.408,0.642205
2454.959,0.64242
2464.585,0.642355
2474.285,0.644417
2484.062,0.645768
2493.915,0.644528
2503.845,0.645448
2513.855,0.645477
2523.944,0.646298
2534.113,0.645873
2544.364,0.646034
2554.697,0.646859
2565.113,0.644653
2575.615,0.645254
2586.201,0.64526
2596.874,0.643977
2607.635,0.645448
2618.485,0.646065
2629.424,0.6473857
2640.454,0.648569
2651.576,0.648607
2662.792,0.64552
2674.102,0.638797
2685.507,0.615146
2697.01,0.546877
2708.61,0.448394
2720.31,0.34665
2732.111,0.381184
2744.013,0.396843
2756.019,0.394495
2768.129,0.389721
2780.345,0.3878314
2792.669,0.38735
2805.102,0.385028
2817.645,0.387938
2830.299,0.387385
2843.067,0.384903
2855.95,0.383313
2868.949,0.38241
2882.066,0.381231
2895.303,0.379319
2908.661,0.377621
2922.142,0.376694
2935.747,0.375107
2949.479,0.375751
2963.339,0.375754
2977.328,0.378953
2991.45,0.381128
3005.705,0.384085
3020.096,0.386737
3034.624,0.3919
3049.292,0.393446
3064.101,0.397046
3079.054,0.400037
3094.153,0.40205
3109.399,0.405649
3124.795,0.409927
3140.344,0.414308
3156.047,0.419816
3171.907,0.425299
3187.926,0.4305228
3204.106,0.435853
3220.451,0.442253
3236.963,0.445218
3253.643,0.450783
3270.495,0.452088
3287.522,0.455421
3304.726,0.457878
3322.11,0.461126
3339.676,0.464424
3357.429,0.465308
3375.37,0.464368
3393.502,0.466621
3411.83,0.461872
3430.355,0.467227
3449.082,0.476234
3468.013,0.4802233
3487.152,0.482836
3506.502,0.484259
3526.067,0.494934
3545.851,0.498476
3565.856,0.500019
3586.088,0.501666
3606.549,0.502219
3627.244,0.503903
3648.176,0.504991
3669.351,0.50578
3690.771,0.506199
3712.442,0.50681
3734.368,0.507274
3756.553,0.507549
3779.001,0.50658
3801.719,0.505767
3824.71,0.505909
3847.98,0.50645
3871.533,0.507458
3895.375,0.507099
3919.512,0.506088
3943.948,0.506878
3968.689,0.510987
3993.742,0.5180553
4019.111,0.522043
4044.804,0.525044
4070.825,0.527984
4097.183,0.532038
4123.882,0.536025
4150.931,0.5412262
4178.335,0.546374
4206.102,0.565951
4234.24,0.614389
4262.754,0.598704
4291.655,0.616452
4320.948,0.60757
4350.642,0.601935
4380.746,0.608334
4411.268,0.620346
4442.217,0.630179
4473.602,0.638443
4505.431,0.646198
4537.716,0.650308
4570.465,0.654463
4603.688,0.658109
4637.397,0.658886
4671.601,0.664941
4706.312,0.674605
4741.541,0.6815743
4777.299,0.688072
4813.6,0.693754
4850.455,0.698849
4887.876,0.707022
4925.878,0.717542
4964.474,0.727426
5003.678,0.733539
5043.504,0.73819
5083.967,0.743154
5125.083,0.745868
5166.868,0.755606
5209.338,0.775977
5252.51,0.783797
5296.401,0.798734
5341.031,0.80988
5386.417,0.8121604
5432.579,0.821613
5479.537,0.8383614
5527.312,0.869083
5575.925,0.692456
5625.399,0.8144598
5675.757,0.829721
5727.022,0.843051
5779.22,0.853977
5832.376,0.8678441
5886.517,0.885535
5941.67,0.886281
5997.864,0.882589
6055.129,0.896775
6113.495,0.901301
6172.996,0.902641
6233.663,0.902623
6295.533,0.9061737
6358.64,0.917207
6423.023,0.925119
6488.721,0.932308
6555.774,0.934442
6624.224,0.942789
6694.117,0.941515
6765.497,0.947255
6838.413,0.949817
6912.916,0.951129
6989.057,0.956
7066.891,0.959964
7146.475,0.965621
7227.869,0.967355
7311.135,0.971599
7396.34,0.975469
7483.55,0.979608
7572.838,0.9822642
7664.28,0.983552
7757.953,0.986039
7853.942,0.990501
7952.331,0.994682
8053.214,0.998908
8156.686,0.0100194
8262.847,0.0100538
8371.804,0.0100912
8483.67,0.0101175
8598.562,0.0101377
8716.604,0.0101595
8837.928,0.0101907
8962.673,0.0102185
9090.986,0.0102171
9223.022,0.0101925
9358.945,0.0101853
9498.929,0.0102048
9643.16,0.0102204
9791.834,0.0102269
9945.159,0.0102258
10103.357,0.0102319
10266.663,0.0102573
10435.331,0.0102685
10609.627,0.0102734
10789.839,0.010271
10976.272,0.010282
11169.256,0.0102864
11369.141,0.0102693
11576.304,0.0102481
11791.15,0.010239
12014.114,0.0102442
12245.667,0.0102392
12486.313,0.0102196
12736.599,0.0102126
12997.116,0.0102256
13268.505,0.0102481
13551.461,0.0102532
13846.739,0.0102207
14155.163,0.0102085
14477.629,0.0101847
14815.121,0.010154
15168.712,0.0100611
15539.583,0.956099
15929.033,0.819366
15965.407,0.797544