File: csv_library/FTIR_PYX_03.csv
Database of Origin,University of Winnipeg Spectrophotometer Facility
Sample Description,"HOSERLab master pyroxenes, FTIR data"
Date Added,2016-12-14 03:34:49.5769

Data ID,FTIR_PYX_03
Sample ID,PYX023
Mineral Name,Orthopyroxene
Grain Size,<45 um
Viewing Geometry,"i=30, e=0"
Material Class,Inosilicate

Wavelength
2000.56,0.587388
2006.983,0.590126
2013.447,0.592583
2019.952,0.595187
2026.499,0.597784
2033.087,0.6001819
2039.718,0.603336
2046.391,0.606215
2053.107,0.609559
2059.867,0.612593
2066.671,0.614541
2073.519,0.617512
2080.412,0.619317
2087.35,0.622046
2094.334,0.624148
2101.364,0.627745
2108.441,0.631341
2115.565,0.63421
2122.736,0.636988
2129.956,0.637909
2137.224,0.642446
2144.541,0.6457321
2151.907,0.647964
2159.324,0.6499115
2166.791,0.651831
2174.309,0.653832
2181.879,0.655227
2189.501,0.658786
2197.175,0.6598496
2204.903,0.661785
2212.685,0.6629206
2220.521,0.663779
2228.412,0.662317
2236.359,0.65998
2244.361,0.658285
2252.421,0.657574
2260.537,0.655833
2268.712,0.649901
2276.945,0.64759
2285.237,0.6422748
2293.59,0.634698
2302.002,0.631228
2310.476,0.622688
2319.012,0.61788
2327.61,0.624281
2336.272,0.630721
2344.997,0.640702
2353.787,0.647842
2362.643,0.6500484
2371.564,0.645624
2380.553,0.6400316
2389.609,0.639416
2398.733,0.642339
2407.926,0.644401
2417.19,0.642797
2426.524,0.640868
2435.93,0.639077
2445.408,0.6388257
2454.959,0.638782
2464.585,0.63822
2474.285,0.636352
2484.062,0.634248
2493.915,0.631277
2503.845,0.6290065
2513.855,0.6290199
2523.944,0.630237
2534.113,0.630656
2544.364,0.6301801
2554.697,0.629514
2565.113,0.628765
2575.615,0.631228
2586.201,0.631995
2596.874,0.6319309
2607.635,0.631876
2618.485,0.63235
2629.424,0.632115
2640.454,0.626997
2651.576,0.621798
2662.792,0.611395
2674.102,0.5783499
2685.507,0.476929
2697.01,0.286351
2708.61,0.1929233
2720.31,0.185815
2732.111,0.176573
2744.013,0.17816
2756.019,0.184439
2768.129,0.189828
2780.345,0.196411
2792.669,0.202517
2805.102,0.206722
2817.645,0.211958
2830.299,0.215774
2843.067,0.2186512
2855.95,0.220679
2868.949,0.223022
2882.066,0.224064
2895.303,0.224537
2908.661,0.224418
2922.142,0.225664
2935.747,0.2258
2949.479,0.228861
2963.339,0.2297075
2977.328,0.234805
2991.45,0.238188
3005.705,0.242129
3020.096,0.2456333
3034.624,0.251741
3049.292,0.25421
3064.101,0.258538
3079.054,0.260801
3094.153,0.263676
3109.399,0.267535
3124.795,0.272775
3140.344,0.277952
3156.047,0.284015
3171.907,0.2911552
3187.926,0.297084
3204.106,0.303878
3220.451,0.311533
3236.963,0.315904
3253.643,0.323677
3270.495,0.329192
3287.522,0.3345793
3304.726,0.3392879
3322.11,0.344652
3339.676,0.3484044
3357.429,0.3515459
3375.37,0.353557
3393.502,0.3568515
3411.83,0.357782
3430.355,0.365222
3449.082,0.373647
3468.013,0.37791
3487.152,0.381836
3506.502,0.384904
3526.067,0.393774
3545.851,0.399337
3565.856,0.4039538
3586.088,0.408111
3606.549,0.410882
3627.244,0.414985
3648.176,0.418773
3669.351,0.422185
3690.771,0.426077
3712.442,0.430157
3734.368,0.434373
3756.553,0.439143
3779.001,0.442658
3801.719,0.445912
3824.71,0.449457
3847.98,0.453709
3871.533,0.4585611
3895.375,0.462698
3919.512,0.4666789
3943.948,0.470856
3968.689,0.476341
3993.742,0.4811879
4019.111,0.484869
4044.804,0.487774
4070.825,0.492535
4097.183,0.497214
4123.882,0.502731
4150.931,0.5087485
4178.335,0.514476
4206.102,0.534032
4234.24,0.585665
4262.754,0.568612
4291.655,0.589578
4320.948,0.580552
4350.642,0.5761257
4380.746,0.583267
4411.268,0.596378
4442.217,0.608174
4473.602,0.61796
4505.431,0.625513
4537.716,0.631074
4570.465,0.637144
4603.688,0.642989
4637.397,0.646874
4671.601,0.655163
4706.312,0.664424
4741.541,0.67195
4777.299,0.679687
4813.6,0.686246
4850.455,0.692333
4887.876,0.699299
4925.878,0.710001
4964.474,0.717911
5003.678,0.72356
5043.504,0.727995
5083.967,0.734818
5125.083,0.739025
5166.868,0.749057
5209.338,0.76863
5252.51,0.773619
5296.401,0.786581
5341.031,0.79669
5386.417,0.799914
5432.579,0.812827
5479.537,0.829544
5527.312,0.845554
5575.925,0.717284
5625.399,0.821386
5675.757,0.82846
5727.022,0.839574
5779.22,0.851068
5832.376,0.863251
5886.517,0.8831722
5941.67,0.883017
5997.864,0.878004
6055.129,0.895459
6113.495,0.897918
6172.996,0.896627
6233.663,0.893192
6295.533,0.896077
6358.64,0.908804
6423.023,0.919214
6488.721,0.92785
6555.774,0.927481
6624.224,0.937147
6694.117,0.931161
6765.497,0.936334
6838.413,0.939482
6912.916,0.938965
6989.057,0.943974
7066.891,0.947662
7146.475,0.954482
7227.869,0.955278
7311.135,0.959529
7396.34,0.9632672
7483.55,0.967173
7572.838,0.969777
7664.28,0.970623
7757.953,0.973367
7853.942,0.977521
7952.331,0.981781
8053.214,0.985692
8156.686,0.988606
8262.847,0.991792
8371.804,0.995371
8483.67,0.99788
8598.562,0.999516
8716.604,0.0100144
8837.928,0.0100469
8962.673,0.0100782
9090.986,0.0100752
9223.022,0.0100473
9358.945,0.0100399
9498.929,0.0100552
9643.16,0.0100697
9791.834,0.0100767
9945.159,0.0100744
10103.357,0.010085
10266.663,0.0101133
10435.331,0.0101263
10609.627,0.0101291
10789.839,0.010123
10976.272,0.0101239
11169.256,0.0101249
11369.141,0.0101108
11576.304,0.0100869
11791.15,0.0100793
12014.114,0.0100903
12245.667,0.0100829
12486.313,0.0100671
12736.599,0.0100548
12997.116,0.0100686
13268.505,0.010086
13551.461,0.0100846
13846.739,0.0100466
14155.163,0.0100275
14477.629,0.998757
14815.121,0.990857
15168.712,0.972027
15539.583,0.901892
15929.033,0.769726
15965.407,0.753293