File: csv_library/FTIR_PYX_06.csv
Database of Origin,University of Winnipeg Spectrophotometer Facility
Sample Description,"HOSERLab master pyroxenes, FTIR data"
Date Added,2016-12-14 03:34:49.6709

Data ID,FTIR_PYX_06
Sample ID,PYX032
Mineral Name,Orthopyroxene
Grain Size,45-90 um
Viewing Geometry,"i=30, e=0"
Material Class,Inosilicate

Wavelength
2000.56,0.162821
2006.983,0.16361
2013.447,0.163811
2019.952,0.165044
2026.499,0.165194
2033.087,0.165639
2039.718,0.166583
2046.391,0.167195
2053.107,0.168191
2059.867,0.169101
2066.671,0.170407
2073.519,0.171417
2080.412,0.172422
2087.35,0.174089
2094.334,0.175131
2101.364,0.176712
2108.441,0.177005
2115.565,0.17766
2122.736,0.179721
2129.956,0.183368
2137.224,0.184412
2144.541,0.187019
2151.907,0.1894338
2159.324,0.192638
2166.791,0.195575
2174.309,0.198572
2181.879,0.201182
2189.501,0.204495
2197.175,0.2079119
2204.903,0.2113579
2212.685,0.215236
2220.521,0.218788
2228.412,0.222034
2236.359,0.224708
2244.361,0.228253
2252.421,0.2316717
2260.537,0.235473
2268.712,0.2388238
2276.945,0.242804
2285.237,0.246233
2293.59,0.250284
2302.002,0.253683
2310.476,0.25744
2319.012,0.260327
2327.61,0.264743
2336.272,0.2684504
2344.997,0.272793
2353.787,0.27711
2362.643,0.281502
2371.564,0.284958
2380.553,0.289013
2389.609,0.292667
2398.733,0.296213
2407.926,0.300008
2417.19,0.303662
2426.524,0.306449
2435.93,0.309989
2445.408,0.31331
2454.959,0.315858
2464.585,0.318855
2474.285,0.321441
2484.062,0.323946
2493.915,0.326327
2503.845,0.328886
2513.855,0.3309151
2523.944,0.33306
2534.113,0.3356085
2544.364,0.337531
2554.697,0.339216
2565.113,0.341543
2575.615,0.344259
2586.201,0.34705
2596.874,0.3478053
2607.635,0.348665
2618.485,0.351472
2629.424,0.352623
2640.454,0.349693
2651.576,0.351361
2662.792,0.352766
2674.102,0.351519
2685.507,0.346126
2697.01,0.339705
2708.61,0.330759
2720.31,0.289079
2732.111,0.233148
2744.013,0.198094
2756.019,0.184167
2768.129,0.1730406
2780.345,0.16784
2792.669,0.164163
2805.102,0.160436
2817.645,0.160092
2830.299,0.159799
2843.067,0.160366
2855.95,0.159053
2868.949,0.1590051
2882.066,0.158448
2895.303,0.157437
2908.661,0.156335
2922.142,0.156788
2935.747,0.156344
2949.479,0.15888
2963.339,0.1580417
2977.328,0.162294
2991.45,0.163133
3005.705,0.166028
3020.096,0.168696
3034.624,0.174192
3049.292,0.174772
3064.101,0.178248
3079.054,0.179103
3094.153,0.1808383
3109.399,0.1826038
3124.795,0.185382
3140.344,0.187782
3156.047,0.19058
3171.907,0.194113
3187.926,0.197896
3204.106,0.201542
3220.451,0.206863
3236.963,0.20789
3253.643,0.213086
3270.495,0.214465
3287.522,0.216471
3304.726,0.218635
3322.11,0.220375
3339.676,0.221092
3357.429,0.222145
3375.37,0.22383
3393.502,0.225473
3411.83,0.227288
3430.355,0.228771
3449.082,0.2318125
3468.013,0.232633
3487.152,0.233232
3506.502,0.235215
3526.067,0.238402
3545.851,0.240056
3565.856,0.241892
3586.088,0.244423
3606.549,0.244247
3627.244,0.245736
3648.176,0.247483
3669.351,0.248366
3690.771,0.249991
3712.442,0.251533
3734.368,0.253553
3756.553,0.256776
3779.001,0.258181
3801.719,0.260096
3824.71,0.262679
3847.98,0.265718
3871.533,0.269083
3895.375,0.272701
3919.512,0.276034
3943.948,0.279082
3968.689,0.283182
3993.742,0.28902
4019.111,0.296995
4044.804,0.303944
4070.825,0.311812
4097.183,0.32062
4123.882,0.330611
4150.931,0.34191
4178.335,0.353934
4206.102,0.381916
4234.24,0.444092
4262.754,0.431474
4291.655,0.458503
4320.948,0.454738
4350.642,0.454159
4380.746,0.467513
4411.268,0.487828
4442.217,0.505867
4473.602,0.520034
4505.431,0.5315
4537.716,0.542798
4570.465,0.555288
4603.688,0.568923
4637.397,0.58187
4671.601,0.597068
4706.312,0.611596
4741.541,0.625352
4777.299,0.640621
4813.6,0.654106
4850.455,0.6640347
4887.876,0.673367
4925.878,0.684542
4964.474,0.69566
5003.678,0.70443
5043.504,0.714417
5083.967,0.726624
5125.083,0.73449
5166.868,0.744649
5209.338,0.762235
5252.51,0.7671404
5296.401,0.7817125
5341.031,0.794222
5386.417,0.799413
5432.579,0.815436
5479.537,0.839369
5527.312,0.878211
5575.925,0.656676
5625.399,0.788592
5675.757,0.811209
5727.022,0.83061
5779.22,0.846932
5832.376,0.8628424
5886.517,0.8836262
5941.67,0.887149
5997.864,0.887874
6055.129,0.9027644
6113.495,0.907957
6172.996,0.910874
6233.663,0.913654
6295.533,0.917945
6358.64,0.928522
6423.023,0.935902
6488.721,0.943869
6555.774,0.946539
6624.224,0.955345
6694.117,0.954677
6765.497,0.960127
6838.413,0.963545
6912.916,0.965502
6989.057,0.97048
7066.891,0.975328
7146.475,0.980342
7227.869,0.983097
7311.135,0.987583
7396.34,0.991876
7483.55,0.996224
7572.838,0.99921
7664.28,0.0100031
7757.953,0.010033
7853.942,0.010076
7952.331,0.0101212
8053.214,0.0101624
8156.686,0.0101938
8262.847,0.0102278
8371.804,0.0102634
8483.67,0.01029098
8598.562,0.0103053
8716.604,0.0103267
8837.928,0.0103598
8962.673,0.0103847
9090.986,0.0103718
9223.022,0.0103396
9358.945,0.0103306
9498.929,0.0103376
9643.16,0.0103472
9791.834,0.0103554
9945.159,0.0103727
10103.357,0.0103734
10266.663,0.0103948
10435.331,0.010411
10609.627,0.0104099
10789.839,0.0104145
10976.272,0.0104154
11169.256,0.0104012
11369.141,0.0103902
11576.304,0.0103659
11791.15,0.0103597
12014.114,0.0103708
12245.667,0.0103691
12486.313,0.010348
12736.599,0.0103411
12997.116,0.010348
13268.505,0.0103643
13551.461,0.0103595
13846.739,0.0103141
14155.163,0.0102902
14477.629,0.0102455
14815.121,0.0101841
15168.712,0.0100164
15539.583,0.931423
15929.033,0.757308
15965.407,0.731265