File: csv_library/FTIR_CLAY_07.csv
Database of Origin,University of Winnipeg Spectrophotometer Facility
Sample Description,See Master Clays in HOSERLab database
Date Added,2016-12-11 20:56:55.2131

Data ID,FTIR_CLAY_07
Sample ID,HAL001
Mineral Name,Halloysite
Grain Size,<45 m
Viewing Geometry,35/0
Resolution,11-72 nm
Material Class,Phyllosilicate

Wavelength
2001.142,0.4509227
2008.155,0.455194
2015.217,0.4591493
2022.328,0.462181
2029.488,0.465119
2036.698,0.468651
2043.959,0.470641
2051.271,0.471293
2058.635,0.470834
2066.051,0.4708282
2073.519,0.4691958
2081.041,0.4687921
2088.617,0.468531
2096.247,0.466313
2103.932,0.4603383
2111.673,0.45667
2119.471,0.454986
2127.325,0.448299
2135.237,0.437082
2143.207,0.4161604
2151.235,0.388584
2159.324,0.368415
2167.472,0.362377
2175.682,0.36017
2183.952,0.3484244
2192.285,0.325322
2200.682,0.2834059
2209.141,0.289278
2217.665,0.361908
2226.254,0.392808
2234.91,0.4038277
2243.631,0.408429
2252.421,0.408285
2261.278,0.40799
2270.204,0.405421
2279.201,0.401032
2288.268,0.393751
2297.406,0.383528
2306.617,0.370328
2315.901,0.362887
2325.259,0.359019
2334.692,0.357153
2344.201,0.347318
2353.787,0.338777
2363.451,0.338991
2373.194,0.327968
2383.016,0.317169
2392.919,0.318816
2402.903,0.319704
2412.971,0.313067
2423.122,0.304558
2433.358,0.2946
2443.679,0.287952
2454.088,0.285504
2464.585,0.279453
2475.171,0.271302
2485.847,0.263152
2496.615,0.259961
2507.476,0.255017
2518.431,0.249887
2529.48,0.24549
2540.627,0.2398
2551.87,0.236032
2563.213,0.23338
2574.656,0.224265
2586.201,0.218107
2597.849,0.208163
2609.601,0.200653
2621.459,0.190894
2633.424,0.176817
2645.498,0.15795
2657.682,0.13678
2669.978,0.122924
2682.387,0.07499678
2694.911,0.06190583
2707.552,0.06365471
2720.31,0.07987788
2733.188,0.0457904
2746.188,0.02835504
2759.311,0.02350181
2772.559,0.02487739
2785.934,0.02479729
2799.437,0.02395603
2813.071,0.02234028
2826.837,0.02197844
2840.737,0.02137516
2854.774,0.02111551
2868.949,0.02031296
2883.265,0.01991709
2897.723,0.01956292
2912.325,0.01942669
2927.075,0.01921402
2941.973,0.0193191
2957.023,0.01994686
2972.226,0.02002237
2987.586,0.02004796
3003.103,0.02136289
3018.782,0.02182436
3034.624,0.02463652
3050.632,0.02392271
3066.809,0.02613534
3083.157,0.02645287
3099.679,0.02859051
3116.378,0.02940892
3133.257,0.03201164
3150.319,0.03461607
3167.566,0.03857097
3185.001,0.04387474
3202.629,0.04767389
3220.451,0.05556817
3238.472,0.05883117
3256.694,0.06760062
3275.122,0.07123948
3293.757,0.07885783
3312.605,0.0851238
3331.669,0.0944919
3350.952,0.100252
3370.458,0.105518
3390.191,0.113486
3410.156,0.121816
3430.355,0.131254
3450.794,0.141922
3471.477,0.150568
3492.408,0.160484
3513.592,0.1690966
3535.032,0.181562
3556.735,0.18948
3578.704,0.198881
3600.946,0.209825
3623.463,0.218403
3646.263,0.226515
3669.351,0.233427
3692.731,0.240579
3716.409,0.2522064
3740.392,0.260698
3764.685,0.270425
3789.294,0.278563
3814.225,0.285613
3839.486,0.291909
3865.081,0.297737
3891.019,0.302813
3917.305,0.307425
3943.948,0.311186
3970.954,0.3156473
3998.33,0.319694
4026.086,0.32361
4054.228,0.327675
4082.764,0.3325213
4111.703,0.338785
4141.054,0.345549
4170.826,0.352994
4201.026,0.371243
4231.666,0.460746
4262.754,0.425433
4294.301,0.449398
4326.317,0.421552
4358.811,0.408493
4391.796,0.412865
4425.282,0.421169
4459.281,0.427692
4493.805,0.432779
4528.865,0.438242
4564.475,0.443882
4600.648,0.449524
4637.397,0.454775
4674.735,0.461206
4712.678,0.471503
4751.24,0.4821394
4790.436,0.493187
4830.283,0.499439
4870.795,0.507462
4911.991,0.514958
4953.888,0.52513
4996.504,0.528257
5039.857,0.531866
5083.967,0.540136
5128.854,0.540804
5174.538,0.548084
5221.041,0.563328
5268.386,0.570429
5316.595,0.5780062
5365.692,0.588244
5415.701,0.616668
5466.65,0.6454019
5518.564,0.701392
5571.47,0.625059
5625.399,0.487119
5680.379,0.544916
5736.443,0.573245
5793.621,0.576737
5851.948,0.601878
5911.459,0.611146
5972.19,0.6374626
6034.179,0.642808
6097.466,0.646433
6162.091,0.657615
6228.099,0.6607403
6295.533,0.669352
6364.44,0.698403
6434.869,0.711264
6506.872,0.729734
6580.501,0.754428
6655.812,0.734773
6732.864,0.732399
6811.718,0.74189
6892.437,0.745033
6975.089,0.751114
7059.743,0.756686
7146.475,0.773236
7235.36,0.767381
7326.481,0.7832
7419.922,0.7797923
7515.774,0.786122
7614.131,0.794361
7715.093,0.798481
7818.764,0.802026
7925.254,0.80853
8034.682,0.813288
8147.169,0.817976
8262.847,0.8202
8381.852,0.823693
8504.331,0.826846
8630.437,0.830325
8760.335,0.8343511
8894.198,0.836147
9032.21,0.838634
9174.568,0.841098
9321.48,0.842431
9473.167,0.844469
9629.868,0.846703
9791.834,0.850167
9959.336,0.853933
10132.662,0.856984
10312.121,0.859441
10498.045,0.861241
10690.79,0.862916
10890.738,0.862665
11098.301,0.861482
11313.921,0.862581
11538.079,0.866281
11771.29,0.8683129
12014.114,0.869647
12267.16,0.868729
12531.086,0.870339
12806.608,0.870576
13094.51,0.87038
13395.644,0.870322
13710.943,0.871663
14041.433,0.869332
14388.237,0.860291
14752.594,0.836115
15135.871,0.767828
15539.583,0.577208
15965.407,0.3642997