File: csv_library/FTIR_LNR_3_3.csv
Database of Origin,University of Winnipeg Spectrophotometer Facility
Sample Description,Lunar samples/ analogues and glasses - D and P 102F FTIR spectra (from PSF) NASA Apollo lunar samples
Other Information,diffuse gold puck 100 spectra averaged
Date Added,2018-07-23 21:03:11.3862

Data ID,FTIR_LNR_3_3
Sample ID,apollo 16 ID# 61221 176 25
Grain Size,<1mm?
Viewing Geometry,i=30/ e=0
Resolution,3 cm-1
Composition,regolith sample

Wavelength
2.001142,0.189056
2.008155,0.188821
2.015217,0.190516
2.022328,0.189658
2.029488,0.19076
2.036698,0.191726
2.043959,0.192092
2.051271,0.193629
2.058635,0.194158
2.066051,0.195474
2.073519,0.196437
2.081041,0.197314
2.088617,0.198844
2.096247,0.1995621
2.103932,0.199487
2.111673,0.199437
2.119471,0.20089
2.127325,0.202122
2.135237,0.202655
2.143207,0.203486
2.151235,0.204148
2.159324,0.205181
2.167472,0.206409
2.175682,0.206996
2.183952,0.208449
2.192285,0.209851
2.200682,0.210794
2.209141,0.211766
2.217665,0.2133715
2.226254,0.214263
2.23491,0.214457
2.243631,0.216212
2.252421,0.216539
2.261278,0.217132
2.270204,0.218033
2.279201,0.21932
2.288268,0.22014
2.297406,0.220659
2.306617,0.222531
2.315901,0.223374
2.325259,0.223755
2.334692,0.225625
2.344201,0.226008
2.353787,0.226899
2.363451,0.227003
2.373194,0.228271
2.383016,0.228897
2.392919,0.230247
2.402903,0.230642
2.412971,0.231667
2.423122,0.232237
2.433358,0.233818
2.443679,0.235105
2.454088,0.235687
2.464585,0.237038
2.475171,0.238672
2.485847,0.239896
2.496615,0.242285
2.507476,0.243528
2.518431,0.245391
2.52948,0.246724
2.540627,0.24873
2.55187,0.253273
2.563213,0.257727
2.574656,0.256534
2.586201,0.257606
2.597849,0.254875
2.609601,0.258912
2.621459,0.263898
2.633424,0.260744
2.645498,0.262103
2.657682,0.261555
2.669978,0.275242
2.682387,0.262767
2.694911,0.268412
2.707552,0.258632
2.72031,0.261015
2.733188,0.242239
2.746188,0.237035
2.759311,0.232379
2.772559,0.232865
2.785934,0.229949
2.799437,0.228087
2.813071,0.227568
2.826837,0.22849
2.840737,0.228638
2.854774,0.229291
2.868949,0.229182
2.883265,0.228868
2.897723,0.229972
2.912325,0.229853
2.927075,0.22993
2.941973,0.231019
2.957023,0.23289
2.972226,0.231642
2.987586,0.231829
3.003103,0.235298
3.018782,0.234623
3.034624,0.240261
3.050632,0.239337
3.066809,0.242926
3.083157,0.243571
3.099679,0.245182
3.116378,0.244952
3.133257,0.245894
3.150319,0.246967
3.167566,0.248595
3.185001,0.250513
3.202629,0.252628
3.220451,0.256021
3.238472,0.255633
3.256694,0.260199
3.275122,0.258436
3.293757,0.260788
3.312605,0.261672
3.331669,0.26632
3.350952,0.266345
3.370458,0.265097
3.390191,0.267455
3.410156,0.269566
3.430355,0.273358
3.450794,0.277086
3.471477,0.280151
3.492408,0.286319
3.513592,0.288483
3.535032,0.29442
3.556735,0.295832
3.578704,0.299822
3.600946,0.30415
3.623463,0.307871
3.646263,0.311802
3.669351,0.317863
3.692731,0.323544
3.716409,0.330536
3.740392,0.337201
3.764685,0.344237
3.789294,0.351926
3.814225,0.360318
3.839486,0.367515
3.865081,0.375153
3.891019,0.383729
3.917305,0.39213
3.943948,0.40162
3.970954,0.412628
3.99833,0.422487
4.026086,0.432914
4.054228,0.44514
4.082764,0.458497
4.111703,0.473872
4.141054,0.490024
4.170826,0.50739
4.201026,0.525444
4.231666,0.548935
4.262754,0.565695
4.294301,0.587646
4.326317,0.608097
4.358811,0.630728
4.391796,0.653491
4.425282,0.678965
4.459281,0.701023
4.493805,0.720529
4.528865,0.737057
4.564475,0.754738
4.600648,0.773131
4.637397,0.790596
4.674735,0.810569
4.712678,0.833145
4.75124,0.856751
4.790436,0.878728
4.830283,0.896624
4.870795,0.910539
4.911991,0.921437
4.953888,0.9324769
4.996504,0.9421854
5.039857,0.952927
5.083967,0.964014
5.128854,0.974123
5.174538,0.983287
5.221041,0.99509
5.268386,0.0100507
5.316595,0.0101545
5.365692,0.0102403
5.415701,0.010436
5.46665,0.0117663
5.518564,0.723615
5.57147,0.656343
5.625399,0.77299
5.680379,0.820443
5.736443,0.853832
5.793621,0.877316
5.851948,0.895164
5.911459,0.917068
5.97219,0.928749
6.034179,0.937674
6.097466,0.94128
6.162091,0.947502
6.228099,0.966155
6.295533,0.980708
6.36444,0.98525
6.434869,0.99448
6.506872,0.0100856
6.580501,0.0101756
6.655812,0.0103149
6.732864,0.0103954
6.811718,0.0104476
6.892437,0.0105262
6.975089,0.0106309
7.059743,0.0107238
7.146475,0.0107605
7.23536,0.0108444
7.326481,0.0109057
7.419922,0.0110017
7.515774,0.0110745
7.614131,0.0111488
7.715093,0.0112217
7.818764,0.0113033
7.925254,0.0113706
8.034682,0.0114861
8.147169,0.0115767
8.262847,0.0116596
8.381852,0.0117098
8.504331,0.0117749
8.630437,0.0118204
8.760335,0.0118576
8.894198,0.011873
9.03221,0.0119025
9.174568,0.0118951
9.32148,0.0119264
9.473167,0.0119436
9.629868,0.0119355
9.791834,0.0119315
9.959336,0.0119409
10.1327,0.0119285
10.3121,0.0119002
10.498,0.0118752
10.69079,0.0118516
10.8907,0.0118333
11.0983,0.0118064
11.3139,0.0117604
11.5381,0.0117142
11.77129,0.0116554
12.0141,0.0115841
12.26716,0.011519
12.5311,0.0114803
12.8066,0.0114724
13.09451,0.011402
13.3956,0.0113242
13.7109,0.0112168
14.0414,0.0111061
14.3882,0.0109464
14.7526,0.0106148
15.1359,0.973922
15.5396,0.743545
15.9654,0.42569