File: csv_library/FTIR_CARB_39_1.csv
Database of Origin,University of Winnipeg Spectrophotometer Facility
Sample Description,Carbonates and Oxolates -  D&P Spectra Reflectance spectra
Other Information,"Designs and Prototypes 102F spectra/Relative to infragold 1"" disk/Reflectance only"
Date Added,2018-08-06 21:06:09.454952

Data ID,FTIR_CARB_39_1
Sample ID,CRB105
Mineral Name,huntite
Locality,Currant Creek/ Nevada/ USA
Grain Size,<45 um
Viewing Geometry,i=35/ e=0
Resolution,~3 cm-1
Formula,Mg3Ca(CO3)4
Composition,Huntite plus a few very minor peaks.

Wavelength
2.001142,0.672702
2.008155,0.67348
2.015217,0.675652
2.022328,0.677861
2.029488,0.680644
2.036698,0.681403
2.043959,0.683268
2.051271,0.684187
2.058635,0.685512
2.066051,0.686415
2.073519,0.686181
2.081041,0.686134
2.088617,0.686257
2.096247,0.686959
2.103932,0.689239
2.111673,0.691747
2.119471,0.691621
2.127325,0.691173
2.135237,0.692918
2.143207,0.6941244
2.151235,0.693778
2.159324,0.694998
2.167472,0.694773
2.175682,0.692874
2.183952,0.690874
2.192285,0.691939
2.200682,0.690657
2.209141,0.691086
2.217665,0.686679
2.226254,0.6836904
2.23491,0.67898
2.243631,0.674012
2.252421,0.6698856
2.261278,0.665113
2.270204,0.660598
2.279201,0.654633
2.288268,0.649416
2.297406,0.644693
2.306617,0.6369019
2.315901,0.628491
2.325259,0.633365
2.334692,0.637982
2.344201,0.6481127
2.353787,0.65862
2.363451,0.6589875
2.373194,0.653208
2.383016,0.646903
2.392919,0.643907
2.402903,0.642898
2.412971,0.639569
2.423122,0.6314894
2.433358,0.625975
2.443679,0.620878
2.454088,0.614954
2.464585,0.60967
2.475171,0.605032
2.485847,0.598806
2.496615,0.592913
2.507476,0.591769
2.518431,0.595902
2.52948,0.604881
2.540627,0.613751
2.55187,0.618363
2.563213,0.6226671
2.574656,0.622423
2.586201,0.624262
2.597849,0.621319
2.609601,0.620066
2.621459,0.6189854
2.633424,0.612092
2.645498,0.602094
2.657682,0.586101
2.669978,0.568683
2.682387,0.47368
2.694911,0.285405
2.707552,0.1791
2.72031,0.224983
2.733188,0.207953
2.746188,0.194133
2.759311,0.199116
2.772559,0.193749
2.785934,0.184445
2.799437,0.175519
2.813071,0.167791
2.826837,0.161294
2.840737,0.154003
2.854774,0.146582
2.868949,0.140268
2.883265,0.134933
2.897723,0.1300758
2.912325,0.1256098
2.927075,0.120974
2.941973,0.118785
2.957023,0.118308
2.972226,0.114444
2.987586,0.116045
3.003103,0.118681
3.018782,0.1204454
3.034624,0.125813
3.050632,0.125929
3.066809,0.129829
3.083157,0.129492
3.099679,0.131924
3.116378,0.132624
3.133257,0.136467
3.150319,0.140568
3.167566,0.145344
3.185001,0.148789
3.202629,0.152052
3.220451,0.158678
3.238472,0.161624
3.256694,0.164616
3.275122,0.146599
3.293757,0.152633
3.312605,0.149946
3.331669,0.157476
3.350952,0.158164
3.370458,0.1546779
3.390191,0.154892
3.410156,0.146965
3.430355,0.147396
3.450794,0.161319
3.471477,0.185033
3.492408,0.222576
3.513592,0.256503
3.535032,0.291779
3.556735,0.3146074
3.578704,0.331565
3.600946,0.345901
3.623463,0.3569489
3.646263,0.3646373
3.669351,0.356029
3.692731,0.338048
3.716409,0.343369
3.740392,0.322238
3.764685,0.290217
3.789294,0.25615
3.814225,0.249
3.839486,0.245044
3.865081,0.220789
3.891019,0.214726
3.917305,0.195803
3.943948,0.194109
3.970954,0.248466
3.99833,0.342173
4.026086,0.415121
4.054228,0.4657988
4.082764,0.490999
4.111703,0.506689
4.141054,0.519283
4.170826,0.531731
4.201026,0.551853
4.231666,0.615583
4.262754,0.5991
4.294301,0.617607
4.326317,0.606977
4.358811,0.6004439
4.391796,0.607163
4.425282,0.617946
4.459281,0.62732
4.493805,0.633627
4.528865,0.640659
4.564475,0.643566
4.600648,0.6528327
4.637397,0.672582
4.674735,0.692237
4.712678,0.707567
4.75124,0.72062
4.790436,0.731113
4.830283,0.739308
4.870795,0.74679
4.911991,0.753777
4.953888,0.762173
4.996504,0.765386
5.039857,0.766872
5.083967,0.777447
5.128854,0.781978
5.174538,0.784393
5.221041,0.787176
5.268386,0.789769
5.316595,0.790896
5.365692,0.785729
5.415701,0.796716
5.46665,0.805043
5.518564,0.802183
5.57147,0.764083
5.625399,0.831447
5.680379,0.841701
5.736443,0.850052
5.793621,0.854023
5.851948,0.866203
5.911459,0.868783
5.97219,0.885591
6.034179,0.890336
6.097466,0.901031
6.162091,0.914242
6.228099,0.91428
6.295533,0.9179582
6.36444,0.933086
6.434869,0.936833
6.506872,0.938914
6.580501,0.953056
6.655812,0.948368
6.732864,0.953135
6.811718,0.960816
6.892437,0.967531
6.975089,0.96817
7.059743,0.971437
7.146475,0.980496
7.23536,0.983149
7.326481,0.988771
7.419922,0.989177
7.515774,0.992505
7.614131,0.996399
7.715093,0.998795
7.818764,0.0100069
7.925254,0.0100388
8.034682,0.0100691
8.147169,0.010101
8.262847,0.0101248
8.381852,0.010148
8.504331,0.0101754
8.630437,0.0101995
8.760335,0.0102204
8.894198,0.0102448
9.03221,0.0102727
9.174568,0.0102808
9.32148,0.0102836
9.473167,0.0102875
9.629868,0.010291
9.791834,0.0102995
9.959336,0.0103087
10.1327,0.0103095
10.3121,0.0103087
10.498,0.0103128
10.69079,0.010312
10.8907,0.0103091
11.0983,0.0103191
11.3139,0.0103241
11.5381,0.0103265
11.77129,0.0103034
12.0141,0.0102791
12.26716,0.0102872
12.5311,0.0102915
12.8066,0.0102984
13.09451,0.0102934
13.3956,0.0102911
13.7109,0.0102776
14.0414,0.010264
14.3882,0.0102172
14.7526,0.010107
15.1359,0.9920789
15.5396,0.919703
15.9654,0.730582