File: csv_library/FTIR_CLAY_08.csv
Database of Origin,University of Winnipeg Spectrophotometer Facility
Sample Description,See Master Clays in HOSERLab database
Date Added,2016-12-11 20:56:55.233

Data ID,FTIR_CLAY_08
Sample ID,HIS001
Mineral Name,Hisingerite
Grain Size,<45 m
Viewing Geometry,35/0
Resolution,11-72 nm
Material Class,Phyllosilicate

Wavelength
2001.142,0.39713
2008.155,0.400258
2015.217,0.403092
2022.328,0.406268
2029.488,0.408617
2036.698,0.411746
2043.959,0.41401
2051.271,0.415558
2058.635,0.41698
2066.051,0.418535
2073.519,0.4200169
2081.041,0.420732
2088.617,0.421804
2096.247,0.423101
2103.932,0.424621
2111.673,0.425969
2119.471,0.427036
2127.325,0.426653
2135.237,0.426888
2143.207,0.426538
2151.235,0.4265
2159.324,0.424441
2167.472,0.424658
2175.682,0.423791
2183.952,0.42298
2192.285,0.4210821
2200.682,0.41967
2209.141,0.418673
2217.665,0.417045
2226.254,0.415868
2234.91,0.413668
2243.631,0.411518
2252.421,0.40761
2261.278,0.404135
2270.204,0.39733
2279.201,0.3906811
2288.268,0.384198
2297.406,0.380525
2306.617,0.378011
2315.901,0.378907
2325.259,0.381274
2334.692,0.381409
2344.201,0.380426
2353.787,0.377295
2363.451,0.373751
2373.194,0.368286
2383.016,0.363262
2392.919,0.358731
2402.903,0.355278
2412.971,0.350979
2423.122,0.347058
2433.358,0.342265
2443.679,0.336877
2454.088,0.331296
2464.585,0.325464
2475.171,0.3203034
2485.847,0.315325
2496.615,0.311581
2507.476,0.307669
2518.431,0.305546
2529.48,0.304428
2540.627,0.304289
2551.87,0.305905
2563.213,0.310429
2574.656,0.307262
2586.201,0.305611
2597.849,0.30082
2609.601,0.29668
2621.459,0.2921323
2633.424,0.284807
2645.498,0.273767
2657.682,0.261748
2669.978,0.259231
2682.387,0.225269
2694.911,0.192818
2707.552,0.1508397
2720.31,0.131376
2733.188,0.07151784
2746.188,0.04039403
2759.311,0.03158207
2772.559,0.02828417
2785.934,0.02618411
2799.437,0.02287199
2813.071,0.0218948
2826.837,0.02119833
2840.737,0.020392
2854.774,0.01918864
2868.949,0.01887227
2883.265,0.01777003
2897.723,0.01730428
2912.325,0.01678314
2927.075,0.01644492
2941.973,0.01674548
2957.023,0.01696909
2972.226,0.01653084
2987.586,0.01630512
3003.103,0.01713986
3018.782,0.01710163
3034.624,0.01928707
3050.632,0.0186024
3066.809,0.02019615
3083.157,0.02007867
3099.679,0.02198151
3116.378,0.02221144
3133.257,0.02317111
3150.319,0.02505942
3167.566,0.02702144
3185.001,0.03066736
3202.629,0.03261113
3220.451,0.03822007
3238.472,0.03884758
3256.694,0.04527982
3275.122,0.04591172
3293.757,0.05108185
3312.605,0.05417233
3331.669,0.06154248
3350.952,0.06390604
3370.458,0.06773494
3390.191,0.07143694
3410.156,0.07735763
3430.355,0.08322329
3450.794,0.0915297
3471.477,0.09771537
3492.408,0.1053617
3513.592,0.110424
3535.032,0.121484
3556.735,0.127801
3578.704,0.136352
3600.946,0.144891
3623.463,0.151898
3646.263,0.159322
3669.351,0.167704
3692.731,0.1760242
3716.409,0.184249
3740.392,0.192389
3764.685,0.20002
3789.294,0.208289
3814.225,0.215783
3839.486,0.222862
3865.081,0.229789
3891.019,0.236883
3917.305,0.243843
3943.948,0.250489
3970.954,0.257005
3998.33,0.26269
4026.086,0.267434
4054.228,0.272488
4082.764,0.278216
4111.703,0.285558
4141.054,0.293797
4170.826,0.302792
4201.026,0.322612
4231.666,0.4166695
4262.754,0.3833117
4294.301,0.410936
4326.317,0.385446
4358.811,0.374763
4391.796,0.382858
4425.282,0.395664
4459.281,0.406651
4493.805,0.416135
4528.865,0.425637
4564.475,0.435802
4600.648,0.446294
4637.397,0.457256
4674.735,0.468659
4712.678,0.480936
4751.24,0.492396
4790.436,0.506037
4830.283,0.515782
4870.795,0.526814
4911.991,0.537592
4953.888,0.550626
4996.504,0.558062
5039.857,0.567646
5083.967,0.581956
5128.854,0.5871528
5174.538,0.595734
5221.041,0.609684
5268.386,0.615028
5316.595,0.622626
5365.692,0.6352335
5415.701,0.6637008
5466.65,0.694477
5518.564,0.746632
5571.47,0.642371
5625.399,0.523042
5680.379,0.579825
5736.443,0.607409
5793.621,0.610919
5851.948,0.632063
5911.459,0.640924
5972.19,0.667825
6034.179,0.674023
6097.466,0.678225
6162.091,0.689574
6228.099,0.691978
6295.533,0.700313
6364.44,0.72784
6434.869,0.740355
6506.872,0.758693
6580.501,0.782268
6655.812,0.766036
6732.864,0.764437
6811.718,0.773317
6892.437,0.775816
6975.089,0.781976
7059.743,0.787479
7146.475,0.8032161
7235.36,0.799322
7326.481,0.814612
7419.922,0.812246
7515.774,0.818906
7614.131,0.826915
7715.093,0.831037
7818.764,0.834877
7925.254,0.8413268
8034.682,0.845941
8147.169,0.850426
8262.847,0.852418
8381.852,0.8554723
8504.331,0.8580568
8630.437,0.860777
8760.335,0.863267
8894.198,0.866107
9032.21,0.86827
9174.568,0.869066
9321.48,0.869854
9473.167,0.871961
9629.868,0.875173
9791.834,0.8788409
9959.336,0.881984
10132.662,0.884612
10312.121,0.887115
10498.045,0.8896245
10690.79,0.891011
10890.738,0.8898262
11098.301,0.88821
11313.921,0.8883019
11538.079,0.890172
11771.29,0.891207
12014.114,0.8920125
12267.16,0.89098
12531.086,0.8915934
12806.608,0.8914694
13094.51,0.891201
13395.644,0.890357
13710.943,0.890162
14041.433,0.886167
14388.237,0.875042
14752.594,0.846368
15135.871,0.769741
15539.583,0.560355
15965.407,0.336431