File: csv_library/FTIR_PYX_08.csv
Database of Origin,University of Winnipeg Spectrophotometer Facility
Sample Description,"HOSERLab master pyroxenes, FTIR data"
Date Added,2016-12-14 03:34:49.7336

Data ID,FTIR_PYX_08
Sample ID,PYX042
Mineral Name,Orthopyroxene
Grain Size,45-90 um
Viewing Geometry,"i=30, e=0"
Material Class,Inosilicate

Wavelength
2000.56,0.269192
2006.983,0.272684
2013.447,0.277101
2019.952,0.281753
2026.499,0.285879
2033.087,0.290042
2039.718,0.295292
2046.391,0.300621
2053.107,0.306397
2059.867,0.312123
2066.671,0.31731
2073.519,0.323369
2080.412,0.329533
2087.35,0.336159
2094.334,0.343383
2101.364,0.3502025
2108.441,0.357434
2115.565,0.3640117
2122.736,0.371014
2129.956,0.378887
2137.224,0.386036
2144.541,0.394626
2151.907,0.402053
2159.324,0.410346
2166.791,0.418041
2174.309,0.426535
2181.879,0.434315
2189.501,0.443102
2197.175,0.451201
2204.903,0.459368
2212.685,0.4671176
2220.521,0.475414
2228.412,0.481625
2236.359,0.487696
2244.361,0.495021
2252.421,0.501774
2260.537,0.508118
2268.712,0.512547
2276.945,0.517489
2285.237,0.518854
2293.59,0.523954
2302.002,0.526532
2310.476,0.523813
2319.012,0.533775
2327.61,0.544243
2336.272,0.552485
2344.997,0.559385
2353.787,0.565706
2362.643,0.5709384
2371.564,0.572535
2380.553,0.573385
2389.609,0.575855
2398.733,0.581333
2407.926,0.586567
2417.19,0.588961
2426.524,0.589729
2435.93,0.591175
2445.408,0.592915
2454.959,0.593902
2464.585,0.594605
2474.285,0.596067
2484.062,0.597819
2493.915,0.597098
2503.845,0.59741
2513.855,0.597358
2523.944,0.597538
2534.113,0.597686
2544.364,0.598682
2554.697,0.599085
2565.113,0.597286
2575.615,0.597371
2586.201,0.596708
2596.874,0.59562
2607.635,0.5961247
2618.485,0.59628
2629.424,0.59699
2640.454,0.596605
2651.576,0.594819
2662.792,0.589397
2674.102,0.576107
2685.507,0.531357
2697.01,0.428636
2708.61,0.31771
2720.31,0.270112
2732.111,0.2834372
2744.013,0.291878
2756.019,0.29686
2768.129,0.300256
2780.345,0.305168
2792.669,0.309769
2805.102,0.312975
2817.645,0.318037
2830.299,0.318735
2843.067,0.31144
2855.95,0.313685
2868.949,0.318861
2882.066,0.319797
2895.303,0.319214
2908.661,0.31841
2922.142,0.317272
2935.747,0.316654
2949.479,0.318616
2963.339,0.318337
2977.328,0.321684
2991.45,0.323832
3005.705,0.326437
3020.096,0.328987
3034.624,0.333571
3049.292,0.333891
3064.101,0.3369
3079.054,0.337991
3094.153,0.339518
3109.399,0.340825
3124.795,0.343474
3140.344,0.345683
3156.047,0.349285
3171.907,0.351503
3187.926,0.354152
3204.106,0.356312
3220.451,0.359764
3236.963,0.360333
3253.643,0.3639312
3270.495,0.365639
3287.522,0.367715
3304.726,0.369649
3322.11,0.3722627
3339.676,0.373614
3357.429,0.373751
3375.37,0.372084
3393.502,0.373847
3411.83,0.371863
3430.355,0.375165
3449.082,0.379326
3468.013,0.380225
3487.152,0.380267
3506.502,0.380799
3526.067,0.384206
3545.851,0.385382
3565.856,0.385662
3586.088,0.386495
3606.549,0.385281
3627.244,0.385349
3648.176,0.385794
3669.351,0.385226
3690.771,0.385156
3712.442,0.3845374
3734.368,0.385093
3756.553,0.386009
3779.001,0.385858
3801.719,0.38596
3824.71,0.38676
3847.98,0.38857
3871.533,0.389643
3895.375,0.390764
3919.512,0.39203
3943.948,0.393707
3968.689,0.3969664
3993.742,0.399939
4019.111,0.40254
4044.804,0.404592
4070.825,0.409413
4097.183,0.4150532
4123.882,0.4212244
4150.931,0.428303
4178.335,0.435809
4206.102,0.45836
4234.24,0.513217
4262.754,0.498177
4291.655,0.5199115
4320.948,0.513033
4350.642,0.5096681
4380.746,0.51932
4411.268,0.535268
4442.217,0.549277
4473.602,0.559645
4505.431,0.568591
4537.716,0.574042
4570.465,0.578721
4603.688,0.582487
4637.397,0.584661
4671.601,0.592728
4706.312,0.604982
4741.541,0.615639
4777.299,0.625174
4813.6,0.633001
4850.455,0.642017
4887.876,0.652836
4925.878,0.665151
4964.474,0.6766923
5003.678,0.684493
5043.504,0.6914189
5083.967,0.700233
5125.083,0.705264
5166.868,0.7159494
5209.338,0.737915
5252.51,0.745463
5296.401,0.761548
5341.031,0.774501
5386.417,0.777931
5432.579,0.79023
5479.537,0.809223
5527.312,0.838127
5575.925,0.690565
5625.399,0.788483
5675.757,0.804961
5727.022,0.819023
5779.22,0.83219
5832.376,0.844448
5886.517,0.8667348
5941.67,0.866902
5997.864,0.8635225
6055.129,0.880844
6113.495,0.885537
6172.996,0.88697
6233.663,0.887634
6295.533,0.891967
6358.64,0.904092
6423.023,0.914332
6488.721,0.923194
6555.774,0.9239301
6624.224,0.933617
6694.117,0.929472
6765.497,0.935306
6838.413,0.938753
6912.916,0.939484
6989.057,0.944288
7066.891,0.948886
7146.475,0.955243
7227.869,0.95655
7311.135,0.961236
7396.34,0.965325
7483.55,0.969583
7572.838,0.972503
7664.28,0.973741
7757.953,0.97661
7853.942,0.980844
7952.331,0.985132
8053.214,0.989253
8156.686,0.992204
8262.847,0.995361
8371.804,0.998828
8483.67,0.010015
8598.562,0.0100327
8716.604,0.0100503
8837.928,0.0100796
8962.673,0.0101068
9090.986,0.0101047
9223.022,0.0100793
9358.945,0.0100695
9498.929,0.0100857
9643.16,0.0101074
9791.834,0.0101129
9945.159,0.0101118
10103.357,0.0101165
10266.663,0.0101419
10435.331,0.0101554
10609.627,0.0101621
10789.839,0.0101565
10976.272,0.0101672
11169.256,0.0101661
11369.141,0.0101456
11576.304,0.0101245
11791.15,0.0101226
12014.114,0.0101335
12245.667,0.0101328
12486.313,0.0101212
12736.599,0.0101154
12997.116,0.010128
13268.505,0.010141
13551.461,0.0101368
13846.739,0.0101056
14155.163,0.0100894
14477.629,0.010051
14815.121,0.999736
15168.712,0.981811
15539.583,0.909207
15929.033,0.753919
15965.407,0.735109