File: csv_library/FTIR_LNR_3_4.csv
Database of Origin,University of Winnipeg Spectrophotometer Facility
Sample Description,Lunar samples/ analogues and glasses - D and P 102F FTIR spectra (from PSF) NASA Apollo lunar samples
Other Information,diffuse gold puck 100 spectra averaged
Date Added,2018-07-23 21:03:11.417

Data ID,FTIR_LNR_3_4
Sample ID,apollo 16 ID# 61221 177 25
Grain Size,<1mm?
Viewing Geometry,i=30/ e=0
Resolution,3 cm-1
Composition,regolith sample

Wavelength
2.001142,0.459296
2.008155,0.458934
2.015217,0.459064
2.022328,0.458701
2.029488,0.458275
2.036698,0.458583
2.043959,0.459188
2.051271,0.458866
2.058635,0.460067
2.066051,0.46117
2.073519,0.461159
2.081041,0.462274
2.088617,0.462437
2.096247,0.46271
2.103932,0.463474
2.111673,0.463942
2.119471,0.465262
2.127325,0.466112
2.135237,0.466612
2.143207,0.467487
2.151235,0.468207
2.159324,0.468833
2.167472,0.469782
2.175682,0.470937
2.183952,0.4711
2.192285,0.470512
2.200682,0.472924
2.209141,0.474542
2.217665,0.475041
2.226254,0.475503
2.23491,0.476226
2.243631,0.47906
2.252421,0.477745
2.261278,0.478339
2.270204,0.479837
2.279201,0.480642
2.288268,0.480676
2.297406,0.481333
2.306617,0.483899
2.315901,0.483434
2.325259,0.48378
2.334692,0.484663
2.344201,0.485505
2.353787,0.485269
2.363451,0.485264
2.373194,0.486043
2.383016,0.487266
2.392919,0.487916
2.402903,0.488131
2.412971,0.488325
2.423122,0.489204
2.433358,0.490425
2.443679,0.491923
2.454088,0.490837
2.464585,0.49137
2.475171,0.491027
2.485847,0.492373
2.496615,0.49378
2.507476,0.494099
2.518431,0.495343
2.52948,0.495592
2.540627,0.496783
2.55187,0.501644
2.563213,0.505389
2.574656,0.503577
2.586201,0.504005
2.597849,0.501523
2.609601,0.504862
2.621459,0.509438
2.633424,0.505013
2.645498,0.505027
2.657682,0.503475
2.669978,0.516022
2.682387,0.502139
2.694911,0.506947
2.707552,0.498085
2.72031,0.50469
2.733188,0.484172
2.746188,0.477387
2.759311,0.468864
2.772559,0.46825
2.785934,0.462187
2.799437,0.459326
2.813071,0.457867
2.826837,0.45755
2.840737,0.45604
2.854774,0.456787
2.868949,0.454108
2.883265,0.452669
2.897723,0.451658
2.912325,0.449673
2.927075,0.44852
2.941973,0.44836
2.957023,0.449111
2.972226,0.448365
2.987586,0.449317
3.003103,0.452134
3.018782,0.452519
3.034624,0.456764
3.050632,0.45629
3.066809,0.458947
3.083157,0.460007
3.099679,0.460973
3.116378,0.461589
3.133257,0.462856
3.150319,0.464478
3.167566,0.466888
3.185001,0.467957
3.202629,0.471022
3.220451,0.474225
3.238472,0.476267
3.256694,0.479908
3.275122,0.479379
3.293757,0.481487
3.312605,0.483163
3.331669,0.486739
3.350952,0.48707
3.370458,0.489191
3.390191,0.49253
3.410156,0.497335
3.430355,0.500465
3.450794,0.499383
3.471477,0.50183
3.492408,0.506869
3.513592,0.509315
3.535032,0.511374
3.556735,0.512472
3.578704,0.515226
3.600946,0.51782
3.623463,0.519934
3.646263,0.522941
3.669351,0.526931
3.692731,0.531024
3.716409,0.534926
3.740392,0.540059
3.764685,0.543906
3.789294,0.548524
3.814225,0.552985
3.839486,0.556802
3.865081,0.56012
3.891019,0.564195
3.917305,0.568348
3.943948,0.573691
3.970954,0.580286
3.99833,0.584954
4.026086,0.590659
4.054228,0.596678
4.082764,0.604264
4.111703,0.61239
4.141054,0.62058
4.170826,0.62987
4.201026,0.640098
4.231666,0.656009
4.262754,0.661741
4.294301,0.673488
4.326317,0.682864
4.358811,0.693462
4.391796,0.705549
4.425282,0.721171
4.459281,0.73543
4.493805,0.746787
4.528865,0.756065
4.564475,0.764974
4.600648,0.776116
4.637397,0.784834
4.674735,0.795115
4.712678,0.812197
4.75124,0.828059
4.790436,0.84303
4.830283,0.855775
4.870795,0.865883
4.911991,0.873276
4.953888,0.880813
4.996504,0.888312
5.039857,0.896105
5.083967,0.904647
5.128854,0.91284
5.174538,0.9203
5.221041,0.930012
5.268386,0.938896
5.316595,0.948246
5.365692,0.956772
5.415701,0.976516
5.46665,0.0109521
5.518564,0.667979
5.57147,0.648804
5.625399,0.748846
5.680379,0.789329
5.736443,0.818596
5.793621,0.838704
5.851948,0.856832
5.911459,0.876313
5.97219,0.887253
6.034179,0.8983
6.097466,0.902545
6.162091,0.908613
6.228099,0.92508
6.295533,0.937221
6.36444,0.941938
6.434869,0.950563
6.506872,0.964067
6.580501,0.972375
6.655812,0.985905
6.732864,0.992731
6.811718,0.99756
6.892437,0.0100407
6.975089,0.0101394
7.059743,0.0102225
7.146475,0.0102591
7.23536,0.0103548
7.326481,0.0104208
7.419922,0.0105103
7.515774,0.0105801
7.614131,0.0106502
7.715093,0.010719
7.818764,0.01079
7.925254,0.0108414
8.034682,0.0109487
8.147169,0.0110311
8.262847,0.0111132
8.381852,0.0111656
8.504331,0.0112308
8.630437,0.0112832
8.760335,0.0113248
8.894198,0.0113395
9.03221,0.0113701
9.174568,0.0113729
9.32148,0.0114004
9.473167,0.0114155
9.629868,0.0114089
9.791834,0.0114175
9.959336,0.0114447
10.1327,0.0114447
10.3121,0.0114257
10.498,0.0114009
10.69079,0.0113817
10.8907,0.0113597
11.0983,0.0113233
11.3139,0.0112682
11.5381,0.0112282
11.77129,0.0111567
12.0141,0.0110976
12.26716,0.0110317
12.5311,0.0109766
12.8066,0.0110397
13.09451,0.0109912
13.3956,0.0109299
13.7109,0.010831
14.0414,0.0107277
14.3882,0.0105674
14.7526,0.0102325
15.1359,0.935451
15.5396,0.699422
15.9654,0.398282