File: csv_library/FTIR_CLAY_02.csv
Database of Origin,University of Winnipeg Spectrophotometer Facility
Sample Description,See Master Clays in HOSERLab database
Date Added,2016-12-11 20:56:55.107

Data ID,FTIR_CLAY_02
Sample ID,BER102
Mineral Name,Berthierine
Grain Size,<45 m
Viewing Geometry,35/0
Resolution,11-72 nm
Material Class,Phyllosilicate

Wavelength
2001.142,0.405726
2008.155,0.407538
2015.217,0.409594
2022.328,0.411914
2029.488,0.413881
2036.698,0.416552
2043.959,0.4180115
2051.271,0.419579
2058.635,0.421281
2066.051,0.422849
2073.519,0.4237471
2081.041,0.426047
2088.617,0.427627
2096.247,0.42828
2103.932,0.430302
2111.673,0.431586
2119.471,0.432946
2127.325,0.432633
2135.237,0.433222
2143.207,0.433837
2151.235,0.434294
2159.324,0.432919
2167.472,0.433574
2175.682,0.433013
2183.952,0.432183
2192.285,0.431008
2200.682,0.4294653
2209.141,0.427667
2217.665,0.425398
2226.254,0.422894
2234.91,0.4187702
2243.631,0.413872
2252.421,0.407687
2261.278,0.403735
2270.204,0.399578
2279.201,0.395708
2288.268,0.392478
2297.406,0.390114
2306.617,0.388125
2315.901,0.386787
2325.259,0.384328
2334.692,0.380693
2344.201,0.378264
2353.787,0.375554
2363.451,0.375261
2373.194,0.375343
2383.016,0.376307
2392.919,0.376389
2402.903,0.3769151
2412.971,0.375437
2423.122,0.373992
2433.358,0.371843
2443.679,0.369217
2454.088,0.366097
2464.585,0.36186
2475.171,0.357661
2485.847,0.353684
2496.615,0.350473
2507.476,0.347917
2518.431,0.3463739
2529.48,0.345248
2540.627,0.344815
2551.87,0.346341
2563.213,0.351375
2574.656,0.347376
2586.201,0.34641
2597.849,0.342061
2609.601,0.338665
2621.459,0.335639
2633.424,0.330305
2645.498,0.32084
2657.682,0.31102
2669.978,0.3117054
2682.387,0.280996
2694.911,0.250976
2707.552,0.20849
2720.31,0.185701
2733.188,0.106052
2746.188,0.05467697
2759.311,0.03661938
2772.559,0.03048485
2785.934,0.02788302
2799.437,0.02509012
2813.071,0.02428634
2826.837,0.02454948
2840.737,0.02445555
2854.774,0.02356939
2868.949,0.02354336
2883.265,0.0222886
2897.723,0.02179296
2912.325,0.02096246
2927.075,0.02074275
2941.973,0.02101509
2957.023,0.02185809
2972.226,0.02163742
2987.586,0.02176301
3003.103,0.02352012
3018.782,0.02370937
3034.624,0.02705105
3050.632,0.02570084
3066.809,0.02845335
3083.157,0.02818062
3099.679,0.03004495
3116.378,0.03052031
3133.257,0.03184314
3150.319,0.03363762
3167.566,0.03564928
3185.001,0.03988602
3202.629,0.04185729
3220.451,0.04817156
3238.472,0.04983695
3256.694,0.05754883
3275.122,0.05950458
3293.757,0.06540205
3312.605,0.06885795
3331.669,0.07613974
3350.952,0.07820315
3370.458,0.07998926
3390.191,0.0832174
3410.156,0.0871675
3430.355,0.09248906
3450.794,0.101934
3471.477,0.106965
3492.408,0.11323
3513.592,0.118692
3535.032,0.132328
3556.735,0.138085
3578.704,0.145792
3600.946,0.153514
3623.463,0.159906
3646.263,0.166426
3669.351,0.173392
3692.731,0.180537
3716.409,0.188088
3740.392,0.1959312
3764.685,0.203262
3789.294,0.209425
3814.225,0.215236
3839.486,0.220216
3865.081,0.2259217
3891.019,0.231363
3917.305,0.2368503
3943.948,0.240063
3970.954,0.2415512
3998.33,0.248127
4026.086,0.260392
4054.228,0.272556
4082.764,0.28409
4111.703,0.293694
4141.054,0.303364
4170.826,0.31377
4201.026,0.333972
4231.666,0.4250729
4262.754,0.39355
4294.301,0.4219875
4326.317,0.398313
4358.811,0.389458
4391.796,0.398109
4425.282,0.411036
4459.281,0.42237
4493.805,0.432135
4528.865,0.441764
4564.475,0.451869
4600.648,0.461982
4637.397,0.472363
4674.735,0.482886
4712.678,0.494997
4751.24,0.506183
4790.436,0.518716
4830.283,0.526816
4870.795,0.536569
4911.991,0.5464878
4953.888,0.5580343
4996.504,0.564043
5039.857,0.572875
5083.967,0.587351
5128.854,0.592623
5174.538,0.601188
5221.041,0.614541
5268.386,0.619103
5316.595,0.626006
5365.692,0.638026
5415.701,0.665749
5466.65,0.693758
5518.564,0.742267
5571.47,0.619645
5625.399,0.5287933
5680.379,0.585934
5736.443,0.615226
5793.621,0.619148
5851.948,0.643164
5911.459,0.651402
5972.19,0.6774764
6034.179,0.684046
6097.466,0.688889
6162.091,0.699317
6228.099,0.699967
6295.533,0.707174
6364.44,0.734179
6434.869,0.7467146
6506.872,0.763771
6580.501,0.786141
6655.812,0.769632
6732.864,0.767747
6811.718,0.776745
6892.437,0.780189
6975.089,0.787111
7059.743,0.793761
7146.475,0.809526
7235.36,0.80647
7326.481,0.821939
7419.922,0.82048
7515.774,0.826828
7614.131,0.834539
7715.093,0.838709
7818.764,0.8425233
7925.254,0.848451
8034.682,0.852626
8147.169,0.856528
8262.847,0.858374
8381.852,0.8608057
8504.331,0.862834
8630.437,0.865359
8760.335,0.867827
8894.198,0.870471
9032.21,0.872335
9174.568,0.872727
9321.48,0.872977
9473.167,0.874707
9629.868,0.878052
9791.834,0.882086
9959.336,0.8854251
10132.662,0.888335
10312.121,0.890896
10498.045,0.893376
10690.79,0.894722
10890.738,0.893637
11098.301,0.891223
11313.921,0.891209
11538.079,0.893183
11771.29,0.893826
12014.114,0.895039
12267.16,0.893832
12531.086,0.894439
12806.608,0.8947656
13094.51,0.894539
13395.644,0.893811
13710.943,0.8933953
14041.433,0.889697
14388.237,0.878233
14752.594,0.84878
15135.871,0.771439
15539.583,0.56226
15965.407,0.335075