File: csv_library/FTIR_LNR_3_1.csv
Database of Origin,University of Winnipeg Spectrophotometer Facility
Sample Description,Lunar samples/ analogues and glasses - D and P 102F FTIR spectra (from PSF) NASA Apollo lunar samples
Other Information,diffuse gold puck 100 spectra averaged
Date Added,2018-07-23 21:03:11.3153

Data ID,FTIR_LNR_3_1
Sample ID,apollo 15  ID# 15041 71 20
Grain Size,<1mm?
Viewing Geometry,i=30/ e=0
Resolution,3 cm-1
Composition,regolith sample

Wavelength
2.001142,49.9715
2.008155,49.797
2.015217,49.6224
2.022328,49.448
2.029488,49.2735
2.036698,49.0991
2.043959,48.9247
2.051271,48.7503
2.058635,48.5759
2.066051,48.4015
2.073519,48.2272
2.081041,48.0529
2.088617,47.8786
2.096247,47.7043
2.103932,47.5301
2.111673,47.3558
2.119471,47.1816
2.127325,47.0074
2.135237,46.8332
2.143207,46.659
2.151235,46.4849
2.159324,46.3108
2.167472,46.1367
2.175682,45.9626
2.183952,45.7886
2.192285,45.6145
2.200682,45.4405
2.209141,45.2665
2.217665,45.0925
2.226254,44.9185
2.23491,44.7445
2.243631,44.5706
2.252421,44.3967
2.261278,44.2228
2.270204,44.0489
2.279201,43.875
2.288268,43.7012
2.297406,43.5274
2.306617,43.3535
2.315901,43.1797
2.325259,43.006
2.334692,42.8322
2.344201,42.6585
2.353787,42.4847
2.363451,42.311
2.373194,42.1373
2.383016,41.9636
2.392919,41.79
2.402903,41.6163
2.412971,41.4427
2.423122,41.2691
2.433358,41.0955
2.443679,40.9219
2.454088,40.7483
2.464585,40.5748
2.475171,40.4012
2.485847,40.2277
2.496615,40.0542
2.507476,39.8807
2.518431,39.7073
2.52948,39.5338
2.540627,39.3604
2.55187,39.1869
2.563213,39.0135
2.574656,38.8401
2.586201,38.6668
2.597849,38.4934
2.609601,38.32
2.621459,38.1467
2.633424,37.9734
2.645498,37.8001
2.657682,37.6268
2.669978,37.4535
2.682387,37.2802
2.694911,37.107
2.707552,36.9337
2.72031,36.7605
2.733188,36.5873
2.746188,36.4141
2.759311,36.2409
2.772559,36.0678
2.785934,35.8946
2.799437,35.7215
2.813071,35.5483
2.826837,35.3752
2.840737,35.2021
2.854774,35.029
2.868949,34.856
2.883265,34.6829
2.897723,34.5099
2.912325,34.3368
2.927075,34.1638
2.941973,33.9908
2.957023,33.8178
2.972226,33.6448
2.987586,33.4718
3.003103,33.2989
3.018782,33.1259
3.034624,32.953
3.050632,32.7801
3.066809,32.6072
3.083157,32.4343
3.099679,32.2614
3.116378,32.0885
3.133257,31.9157
3.150319,31.7428
3.167566,31.57
3.185001,31.3972
3.202629,31.2243
3.220451,31.0516
3.238472,30.8788
3.256694,30.706
3.275122,30.5332
3.293757,30.3605
3.312605,30.1877
3.331669,30.015
3.350952,29.8423
3.370458,29.6696
3.390191,29.4969
3.410156,29.3242
3.430355,29.1515
3.450794,28.9788
3.471477,28.8062
3.492408,28.6335
3.513592,28.4609
3.535032,28.2883
3.556735,28.1157
3.578704,27.9431
3.600946,27.7705
3.623463,27.5979
3.646263,27.4253
3.669351,27.2528
3.692731,27.0802
3.716409,26.9077
3.740392,26.7352
3.764685,26.5626
3.789294,26.3901
3.814225,26.2176
3.839486,26.0452
3.865081,25.8727
3.891019,25.7002
3.917305,25.5278
3.943948,25.3553
3.970954,25.1829
3.99833,25.0104
4.026086,24.838
4.054228,24.6656
4.082764,24.4932
4.111703,24.3208
4.141054,24.1484
4.170826,23.9761
4.201026,23.8037
4.231666,23.6314
4.262754,23.459
4.294301,23.2867
4.326317,23.1143
4.358811,22.942
4.391796,22.7697
4.425282,22.5974
4.459281,22.4251
4.493805,22.2529
4.528865,22.0806
4.564475,21.9083
4.600648,21.7361
4.637397,21.5638
4.674735,21.3916
4.712678,21.2194
4.75124,21.0471
4.790436,20.8749
4.830283,20.7027
4.870795,20.5305
4.911991,20.3583
4.953888,20.1862
4.996504,20.014
5.039857,19.8418
5.083967,19.6697
5.128854,19.4975
5.174538,19.3254
5.221041,19.1533
5.268386,18.9811
5.316595,18.809
5.365692,18.6369
5.415701,18.4648
5.46665,18.2927
5.518564,18.1207
5.57147,17.9486
5.625399,17.7765
5.680379,17.6045
5.736443,17.4324
5.793621,17.2604
5.851948,17.0883
5.911459,16.9163
5.97219,16.7443
6.034179,16.5723
6.097466,16.4003
6.162091,16.2283
6.228099,16.0563
6.295533,15.8843
6.36444,15.7123
6.434869,15.5403
6.506872,15.3684
6.580501,15.1964
6.655812,15.0245
6.732864,14.8525
6.811718,14.6806
6.892437,14.5087
6.975089,14.3367
7.059743,14.1648
7.146475,13.9929
7.23536,13.821
7.326481,13.6491
7.419922,13.4772
7.515774,13.3053
7.614131,13.1335
7.715093,12.9616
7.818764,12.7897
7.925254,12.6179
8.034682,12.446
8.147169,12.2742
8.262847,12.1024
8.381852,11.9305
8.504331,11.7587
8.630437,11.5869
8.760335,11.4151
8.894198,11.2433
9.03221,11.0715
9.174568,10.8997
9.32148,10.7279
9.473167,10.5561
9.629868,10.3844
9.791834,10.2126
9.959336,10.0408
10.1327,9.86907
10.3121,9.69733
10.498,9.52558
10.69079,9.35385
10.8907,9.18211
11.0983,9.01039
11.3139,8.83867
11.5381,8.66695
11.77129,8.49525
12.0141,8.32354
12.26716,8.15185
12.5311,7.98015
12.8066,7.80847
13.09451,7.63679
13.3956,7.46511
13.7109,7.29344
14.0414,7.12178
14.3882,6.95012
14.7526,6.77847
15.1359,6.60682
15.5396,6.43518
15.9654,6.26354