File: csv_library/FTIR_LNR_3_9.csv
Database of Origin,University of Winnipeg Spectrophotometer Facility
Sample Description,Lunar samples/ analogues and glasses - D and P 102F FTIR spectra (from PSF) NASA Apollo lunar samples
Other Information,diffuse gold puck 100 spectra averaged
Date Added,2018-07-23 21:03:11.5912

Data ID,FTIR_LNR_3_9
Sample ID,apollo 12 ID# 12030 184 7
Grain Size,<1mm?
Viewing Geometry,i=30/ e=0
Resolution,3 cm-1
Composition,regolith sample

Wavelength
2.001142,0.16108
2.008155,0.161099
2.015217,0.16139
2.022328,0.161304
2.029488,0.16127
2.036698,0.162077
2.043959,0.162401
2.051271,0.162665
2.058635,0.163364
2.066051,0.164071
2.073519,0.163991
2.081041,0.164793
2.088617,0.165006
2.096247,0.166125
2.103932,0.166019
2.111673,0.165746
2.119471,0.166436
2.127325,0.166573
2.135237,0.166642
2.143207,0.166984
2.151235,0.167725
2.159324,0.168501
2.167472,0.16983
2.175682,0.170508
2.183952,0.171213
2.192285,0.171673
2.200682,0.17294
2.209141,0.173597
2.217665,0.17481
2.226254,0.174904
2.23491,0.175216
2.243631,0.176374
2.252421,0.176791
2.261278,0.177925
2.270204,0.178589
2.279201,0.179268
2.288268,0.180189
2.297406,0.180936
2.306617,0.182195
2.315901,0.182962
2.325259,0.183271
2.334692,0.18447
2.344201,0.184618
2.353787,0.184711
2.363451,0.185465
2.373194,0.186209
2.383016,0.186942
2.392919,0.187403
2.402903,0.1876994
2.412971,0.188684
2.423122,0.189208
2.433358,0.190576
2.443679,0.192073
2.454088,0.192165
2.464585,0.192666
2.475171,0.193673
2.485847,0.194054
2.496615,0.195684
2.507476,0.196766
2.518431,0.197832
2.52948,0.199021
2.540627,0.200366
2.55187,0.20399
2.563213,0.206534
2.574656,0.205571
2.586201,0.206367
2.597849,0.205145
2.609601,0.208542
2.621459,0.2118
2.633424,0.20973
2.645498,0.210174
2.657682,0.209626
2.669978,0.220761
2.682387,0.210455
2.694911,0.214626
2.707552,0.20681
2.72031,0.207093
2.733188,0.192285
2.746188,0.186901
2.759311,0.183934
2.772559,0.183273
2.785934,0.181433
2.799437,0.18052
2.813071,0.179799
2.826837,0.179913
2.840737,0.179027
2.854774,0.179385
2.868949,0.17958
2.883265,0.178745
2.897723,0.178808
2.912325,0.178507
2.927075,0.178096
2.941973,0.178998
2.957023,0.180706
2.972226,0.179901
2.987586,0.180729
3.003103,0.183642
3.018782,0.183138
3.034624,0.187844
3.050632,0.186545
3.066809,0.189469
3.083157,0.189303
3.099679,0.190709
3.116378,0.189996
3.133257,0.189697
3.150319,0.191145
3.167566,0.19168
3.185001,0.19334
3.202629,0.195022
3.220451,0.197916
3.238472,0.197393
3.256694,0.201983
3.275122,0.199852
3.293757,0.201964
3.312605,0.202729
3.331669,0.20631
3.350952,0.205711
3.370458,0.205485
3.390191,0.206366
3.410156,0.208726
3.430355,0.211036
3.450794,0.214291
3.471477,0.216855
3.492408,0.222725
3.513592,0.223127
3.535032,0.229187
3.556735,0.230392
3.578704,0.233965
3.600946,0.23769
3.623463,0.2407149
3.646263,0.244336
3.669351,0.249307
3.692731,0.25414
3.716409,0.260038
3.740392,0.266038
3.764685,0.27164
3.789294,0.278613
3.814225,0.286083
3.839486,0.292855
3.865081,0.299968
3.891019,0.307278
3.917305,0.315542
3.943948,0.324657
3.970954,0.335964
3.99833,0.345253
4.026086,0.355204
4.054228,0.366176
4.082764,0.378691
4.111703,0.392822
4.141054,0.408547
4.170826,0.424536
4.201026,0.442173
4.231666,0.464756
4.262754,0.480277
4.294301,0.501449
4.326317,0.521248
4.358811,0.5434
4.391796,0.565506
4.425282,0.590624
4.459281,0.612117
4.493805,0.63082
4.528865,0.646933
4.564475,0.663402
4.600648,0.681015
4.637397,0.698078
4.674735,0.71783
4.712678,0.73965
4.75124,0.762501
4.790436,0.7827
4.830283,0.798781
4.870795,0.81221
4.911991,0.822233
4.953888,0.832199
4.996504,0.841163
5.039857,0.850847
5.083967,0.861505
5.128854,0.871024
5.174538,0.879456
5.221041,0.890367
5.268386,0.900041
5.316595,0.910322
5.365692,0.923064
5.415701,0.955778
5.46665,0.0110036
5.518564,0.685599
5.57147,0.592854
5.625399,0.702808
5.680379,0.748929
5.736443,0.779694
5.793621,0.802782
5.851948,0.820879
5.911459,0.839588
5.97219,0.851922
6.034179,0.861483
6.097466,0.866047
6.162091,0.87202
6.228099,0.889591
6.295533,0.902926
6.36444,0.90854
6.434869,0.917203
6.506872,0.929651
6.580501,0.938691
6.655812,0.950935
6.732864,0.958318
6.811718,0.963499
6.892437,0.970126
6.975089,0.978487
7.059743,0.986193
7.146475,0.990309
7.23536,0.99784
7.326481,0.0100452
7.419922,0.0101148
7.515774,0.0101736
7.614131,0.0102359
7.715093,0.0102896
7.818764,0.0103466
7.925254,0.0103964
8.034682,0.0104918
8.147169,0.0105641
8.262847,0.0106326
8.381852,0.0106803
8.504331,0.0107415
8.630437,0.010784
8.760335,0.0108206
8.894198,0.0108358
9.03221,0.010862
9.174568,0.0108577
9.32148,0.0108759
9.473167,0.0108977
9.629868,0.0109056
9.791834,0.0109208
9.959336,0.0109485
10.1327,0.0109566
10.3121,0.0109519
10.498,0.0109467
10.69079,0.0109323
10.8907,0.0109162
11.0983,0.0108814
11.3139,0.010847
11.5381,0.0108236
11.77129,0.0107804
12.0141,0.0107327
12.26716,0.0106835
12.5311,0.0106472
12.8066,0.0106634
13.09451,0.0106145
13.3956,0.0105571
13.7109,0.0104677
14.0414,0.0103661
14.3882,0.0101981
14.7526,0.983246
15.1359,0.89119
15.5396,0.666508
15.9654,0.368081