File: csv_library/FTIR_PYX_14.csv
Database of Origin,University of Winnipeg Spectrophotometer Facility
Sample Description,"HOSERLab master pyroxenes, FTIR data"
Date Added,2016-12-14 03:34:49.9297

Data ID,FTIR_PYX_14
Sample ID,PYX112
Mineral Name,Orthopyroxene
Grain Size,45-90 um
Viewing Geometry,"i=30, e=0"
Material Class,Inosilicate

Wavelength
2000.56,0.14195
2006.983,0.1431832
2013.447,0.144563
2019.952,0.146023
2026.499,0.146826
2033.087,0.148793
2039.718,0.15107
2046.391,0.1525009
2053.107,0.154188
2059.867,0.156882
2066.671,0.1587
2073.519,0.160945
2080.412,0.163033
2087.35,0.1655472
2094.334,0.168662
2101.364,0.170877
2108.441,0.1727407
2115.565,0.174049
2122.736,0.177318
2129.956,0.181048
2137.224,0.1833347
2144.541,0.187055
2151.907,0.190514
2159.324,0.194136
2166.791,0.198138
2174.309,0.2018644
2181.879,0.205757
2189.501,0.209951
2197.175,0.213971
2204.903,0.217124
2212.685,0.221065
2220.521,0.225147
2228.412,0.227637
2236.359,0.231046
2244.361,0.23446
2252.421,0.237961
2260.537,0.24154
2268.712,0.24529
2276.945,0.248938
2285.237,0.2513276
2293.59,0.253974
2302.002,0.256674
2310.476,0.258526
2319.012,0.261483
2327.61,0.265197
2336.272,0.269297
2344.997,0.273022
2353.787,0.277178
2362.643,0.281054
2371.564,0.283521
2380.553,0.285683
2389.609,0.288211
2398.733,0.291314
2407.926,0.294815
2417.19,0.297553
2426.524,0.299907
2435.93,0.302066
2445.408,0.304083
2454.959,0.306202
2464.585,0.307933
2474.285,0.310253
2484.062,0.311966
2493.915,0.313344
2503.845,0.315053
2513.855,0.316487
2523.944,0.317688
2534.113,0.3197786
2544.364,0.321101
2554.697,0.322079
2565.113,0.323116
2575.615,0.324747
2586.201,0.326907
2596.874,0.327633
2607.635,0.327875
2618.485,0.330585
2629.424,0.331629
2640.454,0.329205
2651.576,0.3308944
2662.792,0.332182
2674.102,0.33111
2685.507,0.315356
2697.01,0.291935
2708.61,0.277992
2720.31,0.227469
2732.111,0.184317
2744.013,0.167223
2756.019,0.16414
2768.129,0.160039
2780.345,0.1615915
2792.669,0.160992
2805.102,0.155807
2817.645,0.157131
2830.299,0.158096
2843.067,0.15423
2855.95,0.153186
2868.949,0.155451
2882.066,0.155208
2895.303,0.154072
2908.661,0.152131
2922.142,0.152223
2935.747,0.152046
2949.479,0.156142
2963.339,0.156825
2977.328,0.161692
2991.45,0.163543
3005.705,0.165866
3020.096,0.167976
3034.624,0.173572
3049.292,0.174131
3064.101,0.177522
3079.054,0.178779
3094.153,0.180559
3109.399,0.18228
3124.795,0.1857546
3140.344,0.188891
3156.047,0.193212
3171.907,0.196849
3187.926,0.200264
3204.106,0.203771
3220.451,0.208628
3236.963,0.209257
3253.643,0.213979
3270.495,0.214597
3287.522,0.216108
3304.726,0.218121
3322.11,0.219598
3339.676,0.220563
3357.429,0.221153
3375.37,0.221888
3393.502,0.223242
3411.83,0.2245503
3430.355,0.226464
3449.082,0.229123
3468.013,0.22915
3487.152,0.229788
3506.502,0.230722
3526.067,0.23215
3545.851,0.233504
3565.856,0.2344933
3586.088,0.2365
3606.549,0.235721
3627.244,0.2367
3648.176,0.238082
3669.351,0.237894
3690.771,0.239632
3712.442,0.240306
3734.368,0.242189
3756.553,0.244952
3779.001,0.247032
3801.719,0.249251
3824.71,0.251533
3847.98,0.254488
3871.533,0.258061
3895.375,0.262077
3919.512,0.264848
3943.948,0.269026
3968.689,0.274989
3993.742,0.280115
4019.111,0.286111
4044.804,0.291698
4070.825,0.299494
4097.183,0.308394
4123.882,0.318106
4150.931,0.329413
4178.335,0.341229
4206.102,0.370444
4234.24,0.435375
4262.754,0.4216205
4291.655,0.449666
4320.948,0.44529
4350.642,0.443666
4380.746,0.457226
4411.268,0.477973
4442.217,0.496073
4473.602,0.510058
4505.431,0.522306
4537.716,0.53396
4570.465,0.546742
4603.688,0.560687
4637.397,0.572359
4671.601,0.586119
4706.312,0.599777
4741.541,0.6140924
4777.299,0.629257
4813.6,0.642302
4850.455,0.65211
4887.876,0.661797
4925.878,0.6738695
4964.474,0.685619
5003.678,0.695112
5043.504,0.705482
5083.967,0.717274
5125.083,0.725292
5166.868,0.7362648
5209.338,0.754764
5252.51,0.761109
5296.401,0.776332
5341.031,0.788944
5386.417,0.7942073
5432.579,0.809255
5479.537,0.832284
5527.312,0.871453
5575.925,0.601114
5625.399,0.7711
5675.757,0.79861
5727.022,0.821401
5779.22,0.840217
5832.376,0.85879
5886.517,0.87907
5941.67,0.884225
5997.864,0.8852481
6055.129,0.899259
6113.495,0.904971
6172.996,0.908396
6233.663,0.910748
6295.533,0.915141
6358.64,0.926284
6423.023,0.932195
6488.721,0.939586
6555.774,0.943075
6624.224,0.952046
6694.117,0.95351
6765.497,0.959994
6838.413,0.963548
6912.916,0.966269
6989.057,0.971744
7066.891,0.9762784
7146.475,0.981071
7227.869,0.984143
7311.135,0.9884533
7396.34,0.993328
7483.55,0.9975089
7572.838,0.0100041
7664.28,0.0100182
7757.953,0.0100477
7853.942,0.0100911
7952.331,0.0101338
8053.214,0.0101777
8156.686,0.0102105
8262.847,0.0102466
8371.804,0.0102859
8483.67,0.0103135
8598.562,0.0103345
8716.604,0.010356
8837.928,0.0103869
8962.673,0.0104057
9090.986,0.0103981
9223.022,0.0103683
9358.945,0.0103601
9498.929,0.0103677
9643.16,0.0103837
9791.834,0.0103959
9945.159,0.0104023
10103.357,0.0103986
10266.663,0.0104145
10435.331,0.0104319
10609.627,0.0104362
10789.839,0.0104412
10976.272,0.0104541
11169.256,0.0104485
11369.141,0.0104339
11576.304,0.0104159
11791.15,0.010409
12014.114,0.0104178
12245.667,0.0104228
12486.313,0.0104042
12736.599,0.0103969
12997.116,0.0104034
13268.505,0.0104132
13551.461,0.0104035
13846.739,0.0103657
14155.163,0.0103452
14477.629,0.0103154
14815.121,0.0102753
15168.712,0.0101775
15539.583,0.955508
15929.033,0.7830006
15965.407,0.760668