File: csv_library/FTIR_PYX_05.csv
Database of Origin,University of Winnipeg Spectrophotometer Facility
Sample Description,"HOSERLab master pyroxenes, FTIR data"
Date Added,2016-12-14 03:34:49.64

Data ID,FTIR_PYX_05
Sample ID,PYX032
Mineral Name,Orthopyroxene
Grain Size,<45 um
Viewing Geometry,"i=30, e=0"
Material Class,Inosilicate

Wavelength
2000.56,0.284628
2006.983,0.284592
2013.447,0.285129
2019.952,0.285665
2026.499,0.285515
2033.087,0.286743
2039.718,0.288247
2046.391,0.288605
2053.107,0.289432
2059.867,0.290521
2066.671,0.291478
2073.519,0.293385
2080.412,0.29464
2087.35,0.296289
2094.334,0.297303
2101.364,0.298954
2108.441,0.299204
2115.565,0.299863
2122.736,0.302128
2129.956,0.3043053
2137.224,0.3056488
2144.541,0.308045
2151.907,0.309531
2159.324,0.312281
2166.791,0.315918
2174.309,0.317835
2181.879,0.32042
2189.501,0.323357
2197.175,0.325765
2204.903,0.32806
2212.685,0.330716
2220.521,0.333466
2228.412,0.336009
2236.359,0.3375778
2244.361,0.339628
2252.421,0.341755
2260.537,0.344648
2268.712,0.346018
2276.945,0.348446
2285.237,0.350585
2293.59,0.353304
2302.002,0.355191
2310.476,0.357398
2319.012,0.3585652
2327.61,0.3611441
2336.272,0.363298
2344.997,0.365962
2353.787,0.368376
2362.643,0.3705942
2371.564,0.371262
2380.553,0.372858
2389.609,0.375145
2398.733,0.376641
2407.926,0.378263
2417.19,0.3797222
2426.524,0.381165
2435.93,0.382333
2445.408,0.383941
2454.959,0.384938
2464.585,0.386337
2474.285,0.387612
2484.062,0.388582
2493.915,0.389109
2503.845,0.390375
2513.855,0.392769
2523.944,0.3936589
2534.113,0.39478
2544.364,0.395793
2554.697,0.395927
2565.113,0.397606
2575.615,0.399687
2586.201,0.400038
2596.874,0.400422
2607.635,0.400927
2618.485,0.40272
2629.424,0.404069
2640.454,0.40036
2651.576,0.402291
2662.792,0.4042527
2674.102,0.403363
2685.507,0.398912
2697.01,0.3899092
2708.61,0.377088
2720.31,0.349925
2732.111,0.297195
2744.013,0.26014
2756.019,0.2452744
2768.129,0.231622
2780.345,0.225247
2792.669,0.220022
2805.102,0.216099
2817.645,0.215665
2830.299,0.215674
2843.067,0.21534
2855.95,0.214491
2868.949,0.213214
2882.066,0.210996
2895.303,0.208981
2908.661,0.208148
2922.142,0.207522
2935.747,0.206187
2949.479,0.20851
2963.339,0.207692
2977.328,0.212145
2991.45,0.213772
3005.705,0.217027
3020.096,0.219502
3034.624,0.224781
3049.292,0.225931
3064.101,0.229255
3079.054,0.231426
3094.153,0.233647
3109.399,0.235289
3124.795,0.238307
3140.344,0.241414
3156.047,0.244574
3171.907,0.248767
3187.926,0.252762
3204.106,0.257388
3220.451,0.26359
3236.963,0.265539
3253.643,0.271263
3270.495,0.273952
3287.522,0.277355
3304.726,0.281169
3322.11,0.284593
3339.676,0.285879
3357.429,0.28796
3375.37,0.290224
3393.502,0.292619
3411.83,0.2951269
3430.355,0.299295
3449.082,0.303916
3468.013,0.304733
3487.152,0.305447
3506.502,0.308194
3526.067,0.312406
3545.851,0.315776
3565.856,0.318576
3586.088,0.321406
3606.549,0.321458
3627.244,0.324018
3648.176,0.326751
3669.351,0.327912
3690.771,0.330119
3712.442,0.332839
3734.368,0.334898
3756.553,0.338296
3779.001,0.34016
3801.719,0.342938
3824.71,0.3447856
3847.98,0.3475174
3871.533,0.350905
3895.375,0.354358
3919.512,0.356883
3943.948,0.360236
3968.689,0.363759
3993.742,0.369868
4019.111,0.377789
4044.804,0.384388
4070.825,0.391302
4097.183,0.399254
4123.882,0.4090076
4150.931,0.419641
4178.335,0.430162
4206.102,0.453259
4234.24,0.499272
4262.754,0.493901
4291.655,0.515697
4320.948,0.516876
4350.642,0.519115
4380.746,0.531523
4411.268,0.549441
4442.217,0.5656475
4473.602,0.578527
4505.431,0.588997
4537.716,0.599882
4570.465,0.611402
4603.688,0.624516
4637.397,0.635872
4671.601,0.649754
4706.312,0.663882
4741.541,0.676352
4777.299,0.690729
4813.6,0.703929
4850.455,0.714281
4887.876,0.724049
4925.878,0.73464
4964.474,0.745444
5003.678,0.753904
5043.504,0.762907
5083.967,0.773782
5125.083,0.781323
5166.868,0.7906715
5209.338,0.806047
5252.51,0.811016
5296.401,0.824124
5341.031,0.835458
5386.417,0.840921
5432.579,0.85625
5479.537,0.883555
5527.312,0.945557
5575.925,0.6184056
5625.399,0.78653
5675.757,0.82082
5727.022,0.841722
5779.22,0.861241
5832.376,0.876329
5886.517,0.893422
5941.67,0.8995751
5997.864,0.90144
6055.129,0.9125
6113.495,0.917952
6172.996,0.92435
6233.663,0.931833
6295.533,0.938344
6358.64,0.947791
6423.023,0.952846
6488.721,0.95854
6555.774,0.9622914
6624.224,0.970101
6694.117,0.972399
6765.497,0.977761
6838.413,0.981005
6912.916,0.984101
6989.057,0.988849
7066.891,0.993799
7146.475,0.997731
7227.869,0.0100075
7311.135,0.0100468
7396.34,0.0100943
7483.55,0.0101365
7572.838,0.0101636
7664.28,0.0101769
7757.953,0.0102066
7853.942,0.0102533
7952.331,0.010297
8053.214,0.0103409
8156.686,0.0103732
8262.847,0.0104117
8371.804,0.0104528
8483.67,0.0104822
8598.562,0.0105013
8716.604,0.0105202
8837.928,0.0105538
8962.673,0.0105834
9090.986,0.0105714
9223.022,0.0105403
9358.945,0.0105296
9498.929,0.0105379
9643.16,0.010549
9791.834,0.0105523
9945.159,0.0105654
10103.357,0.01056715
10266.663,0.0105843
10435.331,0.0105976
10609.627,0.0105936
10789.839,0.0105953
10976.272,0.0105979
11169.256,0.0105833
11369.141,0.010569
11576.304,0.0105366
11791.15,0.0105195
12014.114,0.0105196
12245.667,0.0105162
12486.313,0.0104972
12736.599,0.0104876
12997.116,0.0104978
13268.505,0.0105181
13551.461,0.0105104
13846.739,0.0104632
14155.163,0.0104379
14477.629,0.0103913
14815.121,0.0103438
15168.712,0.0102002
15539.583,0.966795
15929.033,0.81795
15965.407,0.78753