File: csv_library/FTIR_MTL_11_1.csv
Database of Origin,University of Winnipeg Spectrophotometer Facility
Sample Description,"METALS AND ""IDES"" - D and P FTIR Spectra (PSF)"
Date Added,2018-07-23 22:27:54.0657

Data ID,FTIR_MTL_11_1
Sample ID,PRT101
Mineral Name,Pyrite
Grain Size,<45 um
Viewing Geometry,i=35/ e=0
Resolution,11-72 nm
Material Class,Sulfide

Wavelength
2001.142,0.135648
2008.155,0.135835
2015.217,0.136514
2022.328,0.136235
2029.488,0.136419
2036.698,0.137397
2043.959,0.1382316
2051.271,0.139026
2058.635,0.139723
2066.051,0.140486
2073.519,0.140889
2081.041,0.141167
2088.617,0.142048
2096.247,0.142803
2103.932,0.141686
2111.673,0.140557
2119.471,0.141588
2127.325,0.142492
2135.237,0.142532
2143.207,0.143339
2151.235,0.1441119
2159.324,0.145642
2167.472,0.146745
2175.682,0.14789
2183.952,0.148904
2192.285,0.149383
2200.682,0.149928
2209.141,0.15071
2217.665,0.151966
2226.254,0.151897
2234.91,0.1533946
2243.631,0.154045
2252.421,0.15536
2261.278,0.155837
2270.204,0.15639
2279.201,0.15721
2288.268,0.158066
2297.406,0.158955
2306.617,0.1603188
2315.901,0.1610589
2325.259,0.161909
2334.692,0.162777
2344.201,0.1634274
2353.787,0.164213
2363.451,0.164608
2373.194,0.165628
2383.016,0.166166
2392.919,0.16721
2402.903,0.167364
2412.971,0.168079
2423.122,0.168908
2433.358,0.16989
2443.679,0.170798
2454.088,0.171904
2464.585,0.172345
2475.171,0.173503
2485.847,0.174319
2496.615,0.175548
2507.476,0.17624
2518.431,0.177359
2529.48,0.178634
2540.627,0.180492
2551.87,0.183112
2563.213,0.18916
2574.656,0.1873832
2586.201,0.188985
2597.849,0.1875
2609.601,0.187774
2621.459,0.188962
2633.424,0.190852
2645.498,0.189349
2657.682,0.190144
2669.978,0.204627
2682.387,0.191552
2694.911,0.198567
2707.552,0.187695
2720.31,0.180434
2733.188,0.152951
2746.188,0.138152
2759.311,0.130262
2772.559,0.130374
2785.934,0.131398
2799.437,0.128331
2813.071,0.123469
2826.837,0.120043
2840.737,0.1163332
2854.774,0.113142
2868.949,0.109247
2883.265,0.1057785
2897.723,0.1005457
2912.325,0.09613949
2927.075,0.09274336
2941.973,0.09165311
2957.023,0.09182822
2972.226,0.09090768
2987.586,0.09085452
3003.103,0.09415561
3018.782,0.09329356
3034.624,0.09785783
3050.632,0.09585791
3066.809,0.09927905
3083.157,0.09884416
3099.679,0.101872
3116.378,0.102647
3133.257,0.104951
3150.319,0.107834
3167.566,0.110623
3185.001,0.114292
3202.629,0.1158283
3220.451,0.121461
3238.472,0.120523
3256.694,0.126567
3275.122,0.124602
3293.757,0.129152
3312.605,0.130241
3331.669,0.134991
3350.952,0.13483
3370.458,0.136446
3390.191,0.137134
3410.156,0.139905
3430.355,0.1401109
3450.794,0.148124
3471.477,0.150756
3492.408,0.155999
3513.592,0.155348
3535.032,0.164367
3556.735,0.1650635
3578.704,0.167894
3600.946,0.171428
3623.463,0.173261
3646.263,0.175939
3669.351,0.178366
3692.731,0.181074
3716.409,0.183685
3740.392,0.1868017
3764.685,0.189266
3789.294,0.192311
3814.225,0.195936
3839.486,0.199692
3865.081,0.203466
3891.019,0.207522
3917.305,0.211243
3943.948,0.215716
3970.954,0.221815
3998.33,0.22652
4026.086,0.230489
4054.228,0.235984
4082.764,0.241854
4111.703,0.249185
4141.054,0.256439
4170.826,0.2645689
4201.026,0.280945
4231.666,0.34872
4262.754,0.331348
4294.301,0.35138
4326.317,0.33594
4358.811,0.32985
4391.796,0.337115
4425.282,0.3479484
4459.281,0.359159
4493.805,0.370312
4528.865,0.381511
4564.475,0.393685
4600.648,0.4048253
4637.397,0.417165
4674.735,0.430168
4712.678,0.442609
4751.24,0.455552
4790.436,0.468737
4830.283,0.480645
4870.795,0.492575
4911.991,0.503811
4953.888,0.517497
4996.504,0.526387
5039.857,0.538283
5083.967,0.553996
5128.854,0.561868
5174.538,0.573406
5221.041,0.5901
5268.386,0.599091
5316.595,0.609087
5365.692,0.623972
5415.701,0.652864
5466.65,0.672099
5518.564,0.6796558
5571.47,0.62953
5625.399,0.633059
5680.379,0.660283
5736.443,0.682379
5793.621,0.682541
5851.948,0.7083588
5911.459,0.718397
5972.19,0.743565
6034.179,0.751969
6097.466,0.758002
6162.091,0.76661
6228.099,0.765927
6295.533,0.773826
6364.44,0.801096
6434.869,0.812717
6506.872,0.828924
6580.501,0.849669
6655.812,0.834637
6732.864,0.835498
6811.718,0.845808
6892.437,0.851317
6975.089,0.859776
7059.743,0.866399
7146.475,0.881111
7235.36,0.877278
7326.481,0.891629
7419.922,0.890701
7515.774,0.897318
7614.131,0.904784
7715.093,0.909103
7818.764,0.914267
7925.254,0.921054
8034.682,0.926149
8147.169,0.930977
8262.847,0.935102
8381.852,0.939758
8504.331,0.944254
8630.437,0.948457
8760.335,0.952666
8894.198,0.957058
9032.21,0.960254
9174.568,0.961112
9321.48,0.961865
9473.167,0.963584
9629.868,0.965928
9791.834,0.967768
9959.336,0.970235
10132.662,0.972933
10312.121,0.974996
10498.045,0.976516
10690.79,0.97775
10890.738,0.978809
11098.301,0.979209
11313.921,0.979593
11538.079,0.980182
11771.29,0.981304
12014.114,0.981494
12267.16,0.981511
12531.086,0.982078
12806.608,0.982902
13094.51,0.98364
13395.644,0.9834794
13710.943,0.98317
14041.433,0.980967
14388.237,0.976673
14752.594,0.962893
15135.871,0.921828
15539.583,0.778942
15965.407,0.528989