File: csv_library/FTIR_CLAY_12.csv
Database of Origin,University of Winnipeg Spectrophotometer Facility
Sample Description,See Master Clays in HOSERLab database
Date Added,2016-12-11 20:56:55.3215

Data ID,FTIR_CLAY_12
Sample ID,NON101
Mineral Name,Nontronite
Grain Size,<45 m
Viewing Geometry,35/0
Resolution,11-72 nm
Material Class,Phyllosilicate

Wavelength
2001.142,0.393286
2008.155,0.39728
2015.217,0.401621
2022.328,0.404276
2029.488,0.407531
2036.698,0.410235
2043.959,0.413971
2051.271,0.416557
2058.635,0.418953
2066.051,0.420793
2073.519,0.421749
2081.041,0.423549
2088.617,0.425688
2096.247,0.4273999
2103.932,0.4289508
2111.673,0.4322655
2119.471,0.433864
2127.325,0.432983
2135.237,0.4342146
2143.207,0.434535
2151.235,0.433865
2159.324,0.432467
2167.472,0.430827
2175.682,0.430188
2183.952,0.4285352
2192.285,0.425117
2200.682,0.4181511
2209.141,0.413858
2217.665,0.413614
2226.254,0.413956
2234.91,0.417471
2243.631,0.419697
2252.421,0.419911
2261.278,0.413683
2270.204,0.397064
2279.201,0.3752236
2288.268,0.36743
2297.406,0.380798
2306.617,0.395831
2315.901,0.401111
2325.259,0.400125
2334.692,0.397632
2344.201,0.393409
2353.787,0.38911
2363.451,0.386001
2373.194,0.381089
2383.016,0.37322
2392.919,0.366586
2402.903,0.362732
2412.971,0.363868
2423.122,0.363312
2433.358,0.360688
2443.679,0.3581421
2454.088,0.3549764
2464.585,0.350612
2475.171,0.346708
2485.847,0.340604
2496.615,0.33625
2507.476,0.3337027
2518.431,0.334169
2529.48,0.334741
2540.627,0.334637
2551.87,0.336626
2563.213,0.341098
2574.656,0.338184
2586.201,0.336806
2597.849,0.33252
2609.601,0.328958
2621.459,0.323995
2633.424,0.317839
2645.498,0.306641
2657.682,0.293796
2669.978,0.287176
2682.387,0.241543
2694.911,0.161326
2707.552,0.142194
2720.31,0.131868
2733.188,0.08455514
2746.188,0.05554034
2759.311,0.04416146
2772.559,0.04214293
2785.934,0.03714275
2799.437,0.03164867
2813.071,0.03341102
2826.837,0.04169503
2840.737,0.04083042
2854.774,0.03850069
2868.949,0.03609109
2883.265,0.03420523
2897.723,0.03265588
2912.325,0.03106132
2927.075,0.02994041
2941.973,0.02972585
2957.023,0.03121924
2972.226,0.02961803
2987.586,0.02881382
3003.103,0.0307551
3018.782,0.03032188
3034.624,0.03413822
3050.632,0.0320784
3066.809,0.0342791
3083.157,0.03286734
3099.679,0.03410241
3116.378,0.03316808
3133.257,0.03369169
3150.319,0.03485197
3167.566,0.03617499
3185.001,0.03952744
3202.629,0.04115193
3220.451,0.0477491
3238.472,0.0479692
3256.694,0.05589294
3275.122,0.05580444
3293.757,0.06160698
3312.605,0.06441928
3331.669,0.0720444
3350.952,0.07440207
3370.458,0.07768051
3390.191,0.08068924
3410.156,0.08702465
3430.355,0.09085203
3450.794,0.09650091
3471.477,0.100936
3492.408,0.108052
3513.592,0.110831
3535.032,0.119351
3556.735,0.121931
3578.704,0.12794
3600.946,0.134591
3623.463,0.139294
3646.263,0.145298
3669.351,0.1513008
3692.731,0.158032
3716.409,0.164489
3740.392,0.170972
3764.685,0.176191
3789.294,0.181601
3814.225,0.1869212
3839.486,0.191995
3865.081,0.196491
3891.019,0.20111
3917.305,0.205505
3943.948,0.210249
3970.954,0.215897
3998.33,0.221483
4026.086,0.226404
4054.228,0.232703
4082.764,0.240121
4111.703,0.2477652
4141.054,0.256577
4170.826,0.265732
4201.026,0.283739
4231.666,0.351932
4262.754,0.334383
4294.301,0.354924
4326.317,0.339713
4358.811,0.333117
4391.796,0.338867
4425.282,0.349125
4459.281,0.358787
4493.805,0.369787
4528.865,0.380902
4564.475,0.3917103
4600.648,0.401892
4637.397,0.412134
4674.735,0.423013
4712.678,0.434787
4751.24,0.446469
4790.436,0.458829
4830.283,0.468981
4870.795,0.4783289
4911.991,0.485085
4953.888,0.496392
4996.504,0.501424
5039.857,0.512397
5083.967,0.528388
5128.854,0.535654
5174.538,0.546846
5221.041,0.561626
5268.386,0.565517
5316.595,0.573097
5365.692,0.588718
5415.701,0.622707
5466.65,0.640147
5518.564,0.638892
5571.47,0.645293
5625.399,0.621761
5680.379,0.644409
5736.443,0.665008
5793.621,0.662234
5851.948,0.688109
5911.459,0.695231
5972.19,0.721975
6034.179,0.728891
6097.466,0.733688
6162.091,0.743285
6228.099,0.741127
6295.533,0.749536
6364.44,0.780464
6434.869,0.794122
6506.872,0.81114
6580.501,0.833769
6655.812,0.8178987
6732.864,0.818085
6811.718,0.8295551
6892.437,0.834947
6975.089,0.843534
7059.743,0.8503357
7146.475,0.865793
7235.36,0.860838
7326.481,0.876396
7419.922,0.8744721
7515.774,0.881583
7614.131,0.889571
7715.093,0.894279
7818.764,0.900138
7925.254,0.908341
8034.682,0.914847
8147.169,0.921291
8262.847,0.925916
8381.852,0.930552
8504.331,0.934819
8630.437,0.938866
8760.335,0.943258
8894.198,0.947617
9032.21,0.9508081
9174.568,0.95177
9321.48,0.952189
9473.167,0.95362
9629.868,0.956207
9791.834,0.95818
9959.336,0.96076
10132.662,0.963577
10312.121,0.965942
10498.045,0.967857
10690.79,0.968945
10890.738,0.9699889
11098.301,0.970308
11313.921,0.971217
11538.079,0.971896
11771.29,0.972965
12014.114,0.973661
12267.16,0.973887
12531.086,0.974851
12806.608,0.9755668
13094.51,0.9765523
13395.644,0.976501
13710.943,0.976573
14041.433,0.9751834
14388.237,0.971858
14752.594,0.959912
15135.871,0.922647
15539.583,0.797082
15965.407,0.572102