File: csv_library/FTIR_CLAY_06.csv
Database of Origin,University of Winnipeg Spectrophotometer Facility
Sample Description,See Master Clays in HOSERLab database
Date Added,2016-12-11 20:56:55.1932

Data ID,FTIR_CLAY_06
Sample ID,GRE001
Mineral Name,Greenalite
Grain Size,<45 m
Viewing Geometry,35/0
Resolution,11-72 nm
Material Class,Phyllosilicate

Wavelength
2001.142,0.11718
2008.155,0.117426
2015.217,0.117336
2022.328,0.117002
2029.488,0.117454
2036.698,0.117904
2043.959,0.117966
2051.271,0.117841
2058.635,0.118193
2066.051,0.118703
2073.519,0.118702
2081.041,0.118647
2088.617,0.119345
2096.247,0.11896
2103.932,0.1192739
2111.673,0.118442
2119.471,0.118727
2127.325,0.119352
2135.237,0.11823
2143.207,0.11939
2151.235,0.119758
2159.324,0.120103
2167.472,0.1202299
2175.682,0.120941
2183.952,0.121245
2192.285,0.121716
2200.682,0.122205
2209.141,0.121668
2217.665,0.122702
2226.254,0.12205
2234.91,0.121905
2243.631,0.122244
2252.421,0.1223795
2261.278,0.121489
2270.204,0.121189
2279.201,0.121263
2288.268,0.120924
2297.406,0.120937
2306.617,0.119934
2315.901,0.119786
2325.259,0.119333
2334.692,0.119034
2344.201,0.117865
2353.787,0.118747
2363.451,0.1205782
2373.194,0.121876
2383.016,0.122965
2392.919,0.123531
2402.903,0.123745
2412.971,0.123797
2423.122,0.123562
2433.358,0.123563
2443.679,0.123389
2454.088,0.122892
2464.585,0.122401
2475.171,0.122262
2485.847,0.122158
2496.615,0.122819
2507.476,0.122985
2518.431,0.123394
2529.48,0.124594
2540.627,0.125933
2551.87,0.128262
2563.213,0.134611
2574.656,0.13152
2586.201,0.133177
2597.849,0.130883
2609.601,0.130546
2621.459,0.13148
2633.424,0.132534
2645.498,0.129672
2657.682,0.129808
2669.978,0.143933
2682.387,0.128692
2694.911,0.133282
2707.552,0.119199
2720.31,0.105086
2733.188,0.06041364
2746.188,0.03865647
2759.311,0.03300007
2772.559,0.03159322
2785.934,0.03023364
2799.437,0.02972663
2813.071,0.03129227
2826.837,0.03243731
2840.737,0.03363433
2854.774,0.03428809
2868.949,0.03453562
2883.265,0.03385555
2897.723,0.03354151
2912.325,0.03323558
2927.075,0.03347741
2941.973,0.0338814
2957.023,0.0360744
2972.226,0.03562989
2987.586,0.03587243
3003.103,0.03886574
3018.782,0.03878945
3034.624,0.0432376
3050.632,0.04142254
3066.809,0.04513779
3083.157,0.04430408
3099.679,0.0466238
3116.378,0.04618765
3133.257,0.04672099
3150.319,0.04816205
3167.566,0.04933708
3185.001,0.05243565
3202.629,0.05321493
3220.451,0.0579048
3238.472,0.05615859
3256.694,0.06183747
3275.122,0.05912609
3293.757,0.06229989
3312.605,0.06193859
3331.669,0.06634712
3350.952,0.06533482
3370.458,0.06505375
3390.191,0.06485089
3410.156,0.06845586
3430.355,0.06893178
3450.794,0.07193184
3471.477,0.07279663
3492.408,0.07733231
3513.592,0.07682416
3535.032,0.08243775
3556.735,0.08149295
3578.704,0.0835746
3600.946,0.08650949
3623.463,0.08751059
3646.263,0.089642
3669.351,0.09176948
3692.731,0.09398267
3716.409,0.09624531
3740.392,0.09945076
3764.685,0.101992
3789.294,0.104781
3814.225,0.108313
3839.486,0.111732
3865.081,0.11577
3891.019,0.119958
3917.305,0.124291
3943.948,0.128828
3970.954,0.134516
3998.33,0.140165
4026.086,0.145953
4054.228,0.153149
4082.764,0.1609004
4111.703,0.168486
4141.054,0.176898
4170.826,0.186452
4201.026,0.203801
4231.666,0.273071
4262.754,0.257129
4294.301,0.279474
4326.317,0.265784
4358.811,0.260278
4391.796,0.268586
4425.282,0.281478
4459.281,0.294011
4493.805,0.306985
4528.865,0.320128
4564.475,0.333028
4600.648,0.345503
4637.397,0.359223
4674.735,0.3736948
4712.678,0.387757
4751.24,0.402395
4790.436,0.417576
4830.283,0.4308092
4870.795,0.44406
4911.991,0.456295
4953.888,0.471678
4996.504,0.480873
5039.857,0.493491
5083.967,0.510562
5128.854,0.518646
5174.538,0.532067
5221.041,0.550476
5268.386,0.560509
5316.595,0.572052
5365.692,0.589026
5415.701,0.620951
5466.65,0.641757
5518.564,0.646598
5571.47,0.578878
5625.399,0.601529
5680.379,0.635012
5736.443,0.663596
5793.621,0.665208
5851.948,0.6961551
5911.459,0.707595
5972.19,0.735736
6034.179,0.743643
6097.466,0.749558
6162.091,0.760029
6228.099,0.758286
6295.533,0.764612
6364.44,0.793169
6434.869,0.806353
6506.872,0.824053
6580.501,0.846502
6655.812,0.83061
6732.864,0.831519
6811.718,0.842435
6892.437,0.848301
6975.089,0.857656
7059.743,0.86466
7146.475,0.880189
7235.36,0.875404
7326.481,0.89085
7419.922,0.889823
7515.774,0.89742
7614.131,0.905397
7715.093,0.909923
7818.764,0.91562
7925.254,0.923993
8034.682,0.930233
8147.169,0.936291
8262.847,0.941056
8381.852,0.946246
8504.331,0.950954
8630.437,0.955089
8760.335,0.958925
8894.198,0.963635
9032.21,0.967547
9174.568,0.968332
9321.48,0.968401
9473.167,0.969888
9629.868,0.97268
9791.834,0.974409
9959.336,0.976113
10132.662,0.978343
10312.121,0.9808333
10498.045,0.982481
10690.79,0.983307
10890.738,0.984221
11098.301,0.984737
11313.921,0.98564
11538.079,0.985727
11771.29,0.985872
12014.114,0.98649
12267.16,0.986756
12531.086,0.986842
12806.608,0.9869696
13094.51,0.987385
13395.644,0.987984
13710.943,0.9873653
14041.433,0.983871
14388.237,0.97934
14752.594,0.965087
15135.871,0.925365
15539.583,0.7927984
15965.407,0.54969