File: csv_library/FTIR_CLAY_11.csv
Database of Origin,University of Winnipeg Spectrophotometer Facility
Sample Description,See Master Clays in HOSERLab database
Date Added,2016-12-11 20:56:55.3016

Data ID,FTIR_CLAY_11
Sample ID,MON101
Mineral Name,Montmorillonite
Grain Size,<45 m
Viewing Geometry,35/0
Resolution,11-72 nm
Material Class,Phyllosilicate

Wavelength
2001.142,0.312051
2008.155,0.3156274
2015.217,0.320067
2022.328,0.324447
2029.488,0.326711
2036.698,0.329232
2043.959,0.333359
2051.271,0.33585
2058.635,0.337547
2066.051,0.339769
2073.519,0.340812
2081.041,0.342428
2088.617,0.34385
2096.247,0.345235
2103.932,0.34746
2111.673,0.348919
2119.471,0.351154
2127.325,0.351894
2135.237,0.353612
2143.207,0.3546559
2151.235,0.353402
2159.324,0.350945
2167.472,0.347003
2175.682,0.340395
2183.952,0.33512
2192.285,0.329977
2200.682,0.323197
2209.141,0.319224
2217.665,0.322737
2226.254,0.325957
2234.91,0.328831
2243.631,0.332143
2252.421,0.336004
2261.278,0.339649
2270.204,0.341602
2279.201,0.341125
2288.268,0.340221
2297.406,0.339176
2306.617,0.3362013
2315.901,0.332459
2325.259,0.326918
2334.692,0.320474
2344.201,0.315438
2353.787,0.312806
2363.451,0.310055
2373.194,0.306801
2383.016,0.303934
2392.919,0.301613
2402.903,0.297957
2412.971,0.294097
2423.122,0.28802
2433.358,0.281991
2443.679,0.277651
2454.088,0.274159
2464.585,0.27017
2475.171,0.266871
2485.847,0.262975
2496.615,0.26047
2507.476,0.258179
2518.431,0.256365
2529.48,0.255867
2540.627,0.255594
2551.87,0.257426
2563.213,0.26148
2574.656,0.259267
2586.201,0.257891
2597.849,0.25411
2609.601,0.251239
2621.459,0.248004
2633.424,0.242522
2645.498,0.23314
2657.682,0.222957
2669.978,0.219559
2682.387,0.186171
2694.911,0.1470046
2707.552,0.09440202
2720.31,0.0717456
2733.188,0.03931705
2746.188,0.02486812
2759.311,0.02166418
2772.559,0.02183231
2785.934,0.02107351
2799.437,0.02021509
2813.071,0.02042779
2826.837,0.02018015
2840.737,0.01893888
2854.774,0.01894029
2868.949,0.01794073
2883.265,0.01675072
2897.723,0.01606368
2912.325,0.01575359
2927.075,0.01555734
2941.973,0.01492171
2957.023,0.01514058
2972.226,0.01490648
2987.586,0.0146385
3003.103,0.01511863
3018.782,0.01508895
3034.624,0.01736622
3050.632,0.01614283
3066.809,0.01762438
3083.157,0.01724368
3099.679,0.01875305
3116.378,0.01902653
3133.257,0.02017489
3150.319,0.02259323
3167.566,0.02581644
3185.001,0.03094536
3202.629,0.03455756
3220.451,0.04240886
3238.472,0.04571667
3256.694,0.05519933
3275.122,0.05839666
3293.757,0.06671714
3312.605,0.07298454
3331.669,0.08383048
3350.952,0.08991771
3370.458,0.09696661
3390.191,0.1049297
3410.156,0.115321
3430.355,0.124274
3450.794,0.135266
3471.477,0.144596
3492.408,0.15541
3513.592,0.163636
3535.032,0.176467
3556.735,0.184157
3578.704,0.194524
3600.946,0.204168
3623.463,0.212274
3646.263,0.219968
3669.351,0.227047
3692.731,0.234136
3716.409,0.240989
3740.392,0.2470958
3764.685,0.252772
3789.294,0.258191
3814.225,0.263185
3839.486,0.267281
3865.081,0.27085
3891.019,0.274119
3917.305,0.276589
3943.948,0.278465
3970.954,0.2804517
3998.33,0.281713
4026.086,0.281913
4054.228,0.281934
4082.764,0.282546
4111.703,0.283307
4141.054,0.28442
4170.826,0.286256
4201.026,0.2962139
4231.666,0.350709
4262.754,0.331495
4294.301,0.345047
4326.317,0.3275866
4358.811,0.317153
4391.796,0.3187736
4425.282,0.3253005
4459.281,0.33158
4493.805,0.339124
4528.865,0.347533
4564.475,0.355645
4600.648,0.363981
4637.397,0.372277
4674.735,0.3808639
4712.678,0.391538
4751.24,0.403648
4790.436,0.4162528
4830.283,0.426702
4870.795,0.4364827
4911.991,0.44337
4953.888,0.453673
4996.504,0.456821
5039.857,0.466995
5083.967,0.483886
5128.854,0.49087
5174.538,0.501316
5221.041,0.5160607
5268.386,0.517757
5316.595,0.52376
5365.692,0.5389844
5415.701,0.574827
5466.65,0.590215
5518.564,0.564299
5571.47,0.487799
5625.399,0.630115
5680.379,0.637493
5736.443,0.649526
5793.621,0.634655
5851.948,0.658263
5911.459,0.660206
5972.19,0.691187
6034.179,0.698169
6097.466,0.701647
6162.091,0.713233
6228.099,0.7083485
6295.533,0.714953
6364.44,0.7506203
6434.869,0.764622
6506.872,0.783153
6580.501,0.80931
6655.812,0.784716
6732.864,0.780556
6811.718,0.792601
6892.437,0.795931
6975.089,0.804025
7059.743,0.810128
7146.475,0.8272869
7235.36,0.8188447
7326.481,0.835598
7419.922,0.831208
7515.774,0.838015
7614.131,0.846154
7715.093,0.850839
7818.764,0.856928
7925.254,0.86581
8034.682,0.871274
8147.169,0.877605
8262.847,0.882556
8381.852,0.887282
8504.331,0.890907
8630.437,0.8946629
8760.335,0.899165
8894.198,0.9037735
9032.21,0.906772
9174.568,0.908622
9321.48,0.909552
9473.167,0.912451
9629.868,0.9147376
9791.834,0.91662
9959.336,0.918895
10132.662,0.921682
10312.121,0.924821
10498.045,0.926765
10690.79,0.928275
10890.738,0.929739
11098.301,0.930691
11313.921,0.931554
11538.079,0.933365
11771.29,0.936622
12014.114,0.938952
12267.16,0.9394687
12531.086,0.941142
12806.608,0.942365
13094.51,0.944995
13395.644,0.945466
13710.943,0.946524
14041.433,0.94762
14388.237,0.948873
14752.594,0.9442726
15135.871,0.927591
15539.583,0.871078
15965.407,0.679414