File: csv_library/FTIR_MET_4_3.csv
Database of Origin,University of Winnipeg Spectrophotometer Facility
Sample Description,16. Meteorites. 16.1 Iron meteorites and components 16.1.2. UND samples.  (a) PSF D&P spectra
Other Information,only good to 4.3 um illum. spot larger than viewed spot (8mm)
Date Added,2018-07-23 23:32:11.5778

Data ID,FTIR_MET_4_3
Sample ID,Tucson
Mineral Name,Tucson
Grain Size,Slab
Viewing Geometry,i=30/ e=0
Resolution,6 cm-1
Composition,Cloudy Spot Sanded 220 Grit Paper
Material Class,Iron Meteorite

Wavelength
2000.56,0.416726
2006.983,0.415668
2013.447,0.414602
2019.952,0.4135564
2026.499,0.413142
2033.087,0.412333
2039.718,0.411942
2046.391,0.411251
2053.107,0.4112914
2059.867,0.41045
2066.671,0.409807
2073.519,0.408897
2080.412,0.4090081
2087.35,0.408555
2094.334,0.408354
2101.364,0.408079
2108.441,0.4063616
2115.565,0.406012
2122.736,0.405727
2129.956,0.405387
2137.224,0.4046727
2144.541,0.403961
2151.907,0.403431
2159.324,0.40305
2166.791,0.403584
2174.309,0.403394
2181.879,0.403177
2189.501,0.4026237
2197.175,0.402926
2204.903,0.402933
2212.685,0.402888
2220.521,0.401917
2228.412,0.400906
2236.359,0.39991
2244.361,0.399921
2252.421,0.398947
2260.537,0.398541
2268.712,0.397876
2276.945,0.39704
2285.237,0.396574
2293.59,0.396454
2302.002,0.395882
2310.476,0.395183
2319.012,0.394525
2327.61,0.39448
2336.272,0.39448
2344.997,0.393947
2353.787,0.393771
2362.643,0.393114
2371.564,0.393132
2380.553,0.39263
2389.609,0.392112
2398.733,0.392338
2407.926,0.392122
2417.19,0.3915
2426.524,0.39124
2435.93,0.391429
2445.408,0.391754
2454.959,0.391763
2464.585,0.3914413
2474.285,0.391497
2484.062,0.391846
2493.915,0.392366
2503.845,0.392445
2513.855,0.3922478
2523.944,0.393724
2534.113,0.395397
2544.364,0.395808
2554.697,0.394187
2565.113,0.399311
2575.615,0.402716
2586.201,0.405905
2596.874,0.407036
2607.635,0.407752
2618.485,0.412664
2629.424,0.412015
2640.454,0.398582
2651.576,0.403636
2662.792,0.411115
2674.102,0.414947
2685.507,0.415421
2697.01,0.433175
2708.61,0.482272
2720.31,0.530219
2732.111,0.4511726
2744.013,0.430014
2756.019,0.434098
2768.129,0.415429
2780.345,0.406882
2792.669,0.401493
2805.102,0.4091801
2817.645,0.400947
2830.299,0.397779
2843.067,0.396006
2855.95,0.395711
2868.949,0.39325
2882.066,0.392144
2895.303,0.3902821
2908.661,0.389447
2922.142,0.38824
2935.747,0.385752
2949.479,0.385314
2963.339,0.381997
2977.328,0.381925
2991.45,0.3800984
3005.705,0.378781
3020.096,0.377836
3034.624,0.378545
3049.292,0.376934
3064.101,0.376977
3079.054,0.375996
3094.153,0.375533
3109.399,0.374786
3124.795,0.373929
3140.344,0.372338
3156.047,0.37177
3171.907,0.3711322
3187.926,0.370288
3204.106,0.370136
3220.451,0.370607
3236.963,0.368443
3253.643,0.369033
3270.495,0.367686
3287.522,0.366593
3304.726,0.3660203
3322.11,0.3654309
3339.676,0.364243
3357.429,0.363704
3375.37,0.363745
3393.502,0.362291
3411.83,0.362081
3430.355,0.361779
3449.082,0.362808
3468.013,0.363059
3487.152,0.36336
3506.502,0.364068
3526.067,0.365345
3545.851,0.3666
3565.856,0.367828
3586.088,0.369696
3606.549,0.37008
3627.244,0.371565
3648.176,0.373807
3669.351,0.375465
3690.771,0.378058
3712.442,0.380888
3734.368,0.3836
3756.553,0.386737
3779.001,0.389185
3801.719,0.392187
3824.71,0.395119
3847.98,0.3969961
3871.533,0.399473
3895.375,0.402377
3919.512,0.405305
3943.948,0.408897
3968.689,0.41349
3993.742,0.41802
4019.111,0.4223342
4044.804,0.428006
4070.825,0.434586
4097.183,0.442578
4123.882,0.451479
4150.931,0.461941
4178.335,0.472875
4206.102,0.504631
4234.24,0.605723
4262.754,0.5608149
4291.655,0.598446
4320.948,0.576012
4350.642,0.567958
4380.746,0.580088
4411.268,0.599777
4442.217,0.6155053
4473.602,0.624186
4505.431,0.62876
4537.716,0.634837
4570.465,0.642274
4603.688,0.6510282
4637.397,0.661386
4671.601,0.673763
4706.312,0.686881
4741.541,0.698483
4777.299,0.70945
4813.6,0.717078
4850.455,0.72325
4887.876,0.7285817
4925.878,0.733781
4964.474,0.739869
5003.678,0.743748
5043.504,0.74812
5083.967,0.756132
5125.083,0.758533
5166.868,0.76359
5209.338,0.777716
5252.51,0.77506
5296.401,0.785849
5341.031,0.794151
5386.417,0.795883
5432.579,0.830355
5479.537,0.985445
5527.312,0.0210036
5575.925,0.260399
5625.399,0.440497
5675.757,0.519594
5727.022,0.567362
5779.22,0.599552
5832.376,0.625087
5886.517,0.646792
5941.67,0.664717
5997.864,0.676509
6055.129,0.684724
6113.495,0.694235
6172.996,0.703532
6233.663,0.715428
6295.533,0.725702
6358.64,0.739251
6423.023,0.752346
6488.721,0.766138
6555.774,0.777609
6624.224,0.791701
6694.117,0.790871
6765.497,0.798692
6838.413,0.803406
6912.916,0.80524
6989.057,0.813533
7066.891,0.818925
7146.475,0.8308
7227.869,0.833486
7311.135,0.842065
7396.34,0.84607
7483.55,0.851952
7572.838,0.857367
7664.28,0.860403
7757.953,0.864683
7853.942,0.868759
7952.331,0.8726766
8053.214,0.877344
8156.686,0.8811869
8262.847,0.883668
8371.804,0.886601
8483.67,0.889458
8598.562,0.892095
8716.604,0.895059
8837.928,0.897604
8962.673,0.900432
9090.986,0.90209
9223.022,0.902986
9358.945,0.904876
9498.929,0.907433
9643.16,0.909275
9791.834,0.910826
9945.159,0.9115348
10103.357,0.911664
10266.663,0.912026
10435.331,0.912955
10609.627,0.91361
10789.839,0.914293
10976.272,0.915163
11169.256,0.915732
11369.141,0.917849
11576.304,0.9196081
11791.15,0.920702
12014.114,0.921036
12245.667,0.920674
12486.313,0.920747
12736.599,0.919335
12997.116,0.915945
13268.505,0.911868
13551.461,0.907518
13846.739,0.900902
14155.163,0.88868
14477.629,0.863425
14815.121,0.8092495
15168.712,0.687583
15539.583,0.439444
15929.033,0.241816
15965.407,0.230906