File: csv_library/FTIR_CARB_39_3.csv
Database of Origin,University of Winnipeg Spectrophotometer Facility
Sample Description,Carbonates and Oxolates -  D&P Spectra Reflectance spectra
Other Information,in air reference no window
Date Added,2018-08-06 21:06:09.539091

Data ID,FTIR_CARB_39_3
Sample ID,CRB106
Mineral Name,Siderite
Locality,Snarum/ Norway
Grain Size,<45 um
Viewing Geometry,i=35/ e=0
Resolution,~3 cm-1
Formula,MgCO3
Composition,XRD shows only magnesite.

Wavelength
2.001142,0.40052
2.008155,0.400474
2.015217,0.402314
2.022328,0.404379
2.029488,0.4060541
2.036698,0.408632
2.043959,0.409872
2.051271,0.411086
2.058635,0.412864
2.066051,0.4142406
2.073519,0.414799
2.081041,0.415959
2.088617,0.417217
2.096247,0.418475
2.103932,0.420876
2.111673,0.424597
2.119471,0.425418
2.127325,0.424773
2.135237,0.426067
2.143207,0.4268924
2.151235,0.426546
2.159324,0.426131
2.167472,0.426013
2.175682,0.425912
2.183952,0.426513
2.192285,0.428116
2.200682,0.427614
2.209141,0.426312
2.217665,0.4264986
2.226254,0.424774
2.23491,0.423857
2.243631,0.4221553
2.252421,0.420586
2.261278,0.418654
2.270204,0.417335
2.279201,0.415429
2.288268,0.412739
2.297406,0.410741
2.306617,0.409215
2.315901,0.408132
2.325259,0.406813
2.334692,0.405848
2.344201,0.404502
2.353787,0.406165
2.363451,0.406063
2.373194,0.406198
2.383016,0.406114
2.392919,0.4058689
2.402903,0.404921
2.412971,0.404005
2.423122,0.402503
2.433358,0.4001166
2.443679,0.397782
2.454088,0.395269
2.464585,0.392379
2.475171,0.389717
2.485847,0.387209
2.496615,0.384849
2.507476,0.382282
2.518431,0.379846
2.52948,0.37892
2.540627,0.378142
2.55187,0.380803
2.563213,0.388595
2.574656,0.390801
2.586201,0.393776
2.597849,0.394003
2.609601,0.392704
2.621459,0.391121
2.633424,0.388227
2.645498,0.38231
2.657682,0.377078
2.669978,0.379588
2.682387,0.358146
2.694911,0.3321817
2.707552,0.292391
2.72031,0.28366
2.733188,0.2429472
2.746188,0.208059
2.759311,0.178547
2.772559,0.152292
2.785934,0.131742
2.799437,0.11508
2.813071,0.101868
2.826837,0.09232591
2.840737,0.08354362
2.854774,0.07799762
2.868949,0.07329854
2.883265,0.06989597
2.897723,0.06701139
2.912325,0.06481056
2.927075,0.06299232
2.941973,0.06275764
2.957023,0.06422389
2.972226,0.0636206
2.987586,0.06379907
3.003103,0.06673448
3.018782,0.06691085
3.034624,0.07191254
3.050632,0.06992413
3.066809,0.0734909
3.083157,0.07303216
3.099679,0.07536013
3.116378,0.07541406
3.133257,0.07716513
3.150319,0.07936068
3.167566,0.08154608
3.185001,0.08580207
3.202629,0.08799262
3.220451,0.09464857
3.238472,0.09472957
3.256694,0.101597
3.275122,0.1003
3.293757,0.104215
3.312605,0.10328
3.331669,0.104856
3.350952,0.101111
3.370458,0.101798
3.390191,0.102414
3.410156,0.106551
3.430355,0.107778
3.450794,0.110104
3.471477,0.110518
3.492408,0.114812
3.513592,0.117674
3.535032,0.130117
3.556735,0.137648
3.578704,0.146909
3.600946,0.155691
3.623463,0.161196
3.646263,0.166797
3.669351,0.172015
3.692731,0.177037
3.716409,0.181932
3.740392,0.186103
3.764685,0.188481
3.789294,0.183159
3.814225,0.169763
3.839486,0.163362
3.865081,0.160685
3.891019,0.159713
3.917305,0.1586921
3.943948,0.155995
3.970954,0.150338
3.99833,0.149527
4.026086,0.167842
4.054228,0.197629
4.082764,0.226099
4.111703,0.247525
4.141054,0.262759
4.170826,0.275101
4.201026,0.2939249
4.231666,0.359681
4.262754,0.344356
4.294301,0.364994
4.326317,0.351816
4.358811,0.345436
4.391796,0.350566
4.425282,0.360223
4.459281,0.369436
4.493805,0.380049
4.528865,0.3908553
4.564475,0.40111
4.600648,0.4097979
4.637397,0.418427
4.674735,0.432834
4.712678,0.450698
4.75124,0.466499
4.790436,0.480849
4.830283,0.492333
4.870795,0.50329
4.911991,0.513783
4.953888,0.526877
4.996504,0.534148
5.039857,0.544629
5.083967,0.558438
5.128854,0.562956
5.174538,0.575345
5.221041,0.5915238
5.268386,0.599636
5.316595,0.607745
5.365692,0.6186015
5.415701,0.639516
5.46665,0.640011
5.518564,0.625662
5.57147,0.5627508
5.625399,0.630031
5.680379,0.654764
5.736443,0.678818
5.793621,0.675589
5.851948,0.702243
5.911459,0.709957
5.97219,0.73685
6.034179,0.74277
6.097466,0.747404
6.162091,0.756944
6.228099,0.753003
6.295533,0.759495
6.36444,0.791307
6.434869,0.8104442
6.506872,0.828201
6.580501,0.849701
6.655812,0.833129
6.732864,0.831391
6.811718,0.840575
6.892437,0.845577
6.975089,0.85427
7.059743,0.861313
7.146475,0.876369
7.23536,0.869963
7.326481,0.883989
7.419922,0.882863
7.515774,0.890147
7.614131,0.898182
7.715093,0.902717
7.818764,0.908582
7.925254,0.916709
8.034682,0.923044
8.147169,0.928626
8.262847,0.932772
8.381852,0.9376307
8.504331,0.942098
8.630437,0.945831
8.760335,0.949719
8.894198,0.953755
9.03221,0.956896
9.174568,0.9574967
9.32148,0.957307
9.473167,0.958957
9.629868,0.96177
9.791834,0.963696
9.959336,0.964902
10.1327,0.966899
10.3121,0.969631
10.498,0.971175
10.69079,0.97179
10.8907,0.972452
11.0983,0.972616
11.3139,0.973278
11.5381,0.973632
11.77129,0.973586
12.0141,0.974579
12.26716,0.974566
12.5311,0.974709
12.8066,0.974779
13.09451,0.975404
13.3956,0.976137
13.7109,0.975588
14.0414,0.971843
14.3882,0.966253
14.7526,0.951032
15.1359,0.907307
15.5396,0.762016
15.9654,0.521062