File: csv_library/FTIR_PYX_09.csv
Database of Origin,University of Winnipeg Spectrophotometer Facility
Sample Description,"HOSERLab master pyroxenes, FTIR data"
Date Added,2016-12-14 03:34:49.7704

Data ID,FTIR_PYX_09
Sample ID,PYX108
Mineral Name,Orthopyroxene
Grain Size,<45 um
Viewing Geometry,"i=30, e=0"
Material Class,Inosilicate

Wavelength
2000.56,0.470521
2006.983,0.471297
2013.447,0.473151
2019.952,0.4752615
2026.499,0.475928
2033.087,0.477167
2039.718,0.479294
2046.391,0.480308
2053.107,0.482115
2059.867,0.48377
2066.671,0.485088
2073.519,0.486776
2080.412,0.487871
2087.35,0.4898365
2094.334,0.491129
2101.364,0.4929
2108.441,0.494147
2115.565,0.495341
2122.736,0.496554
2129.956,0.497414
2137.224,0.4985936
2144.541,0.500548
2151.907,0.500895
2159.324,0.502145
2166.791,0.503408
2174.309,0.504495
2181.879,0.505048
2189.501,0.507018
2197.175,0.508107
2204.903,0.509692
2212.685,0.510227
2220.521,0.511243
2228.412,0.510766
2236.359,0.510148
2244.361,0.510223
2252.421,0.510792
2260.537,0.5101483
2268.712,0.507649
2276.945,0.5064756
2285.237,0.500381
2293.59,0.499452
2302.002,0.497175
2310.476,0.487503
2319.012,0.497237
2327.61,0.505469
2336.272,0.509441
2344.997,0.511495
2353.787,0.511551
2362.643,0.512506
2371.564,0.509868
2380.553,0.507818
2389.609,0.507879
2398.733,0.512643
2407.926,0.515998
2417.19,0.5167278
2426.524,0.516454
2435.93,0.517119
2445.408,0.51771
2454.959,0.518626
2464.585,0.518393
2474.285,0.520106
2484.062,0.521421
2493.915,0.5212209
2503.845,0.523028
2513.855,0.524052
2523.944,0.525311
2534.113,0.526373
2544.364,0.527875
2554.697,0.528562
2565.113,0.529523
2575.615,0.530834
2586.201,0.531877
2596.874,0.532337
2607.635,0.533695
2618.485,0.536249
2629.424,0.537763
2640.454,0.537294
2651.576,0.538249
2662.792,0.537527
2674.102,0.529653
2685.507,0.500974
2697.01,0.442384
2708.61,0.356347
2720.31,0.274837
2732.111,0.303983
2744.013,0.317909
2756.019,0.310459
2768.129,0.302847
2780.345,0.29792
2792.669,0.29297
2805.102,0.288309
2817.645,0.287899
2830.299,0.28778
2843.067,0.28415
2855.95,0.283664
2868.949,0.28182
2882.066,0.2784
2895.303,0.2743783
2908.661,0.271908
2922.142,0.270505
2935.747,0.270109
2949.479,0.272449
2963.339,0.272125
2977.328,0.276221
2991.45,0.278039
3005.705,0.281137
3020.096,0.28281
3034.624,0.2884689
3049.292,0.289345
3064.101,0.293258
3079.054,0.295652
3094.153,0.298817
3109.399,0.3014971
3124.795,0.306079
3140.344,0.3117968
3156.047,0.318123
3171.907,0.324502
3187.926,0.330355
3204.106,0.33672
3220.451,0.344712
3236.963,0.348943
3253.643,0.356135
3270.495,0.360865
3287.522,0.366502
3304.726,0.371017
3322.11,0.376763
3339.676,0.381365
3357.429,0.3814714
3375.37,0.377658
3393.502,0.382884
3411.83,0.379882
3430.355,0.390816
3449.082,0.405409
3468.013,0.412133
3487.152,0.413221
3506.502,0.416554
3526.067,0.432426
3545.851,0.440552
3565.856,0.446714
3586.088,0.451695
3606.549,0.454782
3627.244,0.458781
3648.176,0.463583
3669.351,0.466688
3690.771,0.470606
3712.442,0.474142
3734.368,0.477512
3756.553,0.481562
3779.001,0.484688
3801.719,0.487583
3824.71,0.491201
3847.98,0.494485
3871.533,0.498245
3895.375,0.5021001
3919.512,0.504354
3943.948,0.508174
3968.689,0.511739
3993.742,0.516044
4019.111,0.518459
4044.804,0.5213215
4070.825,0.524973
4097.183,0.529709
4123.882,0.535227
4150.931,0.5414195
4178.335,0.545991
4206.102,0.5635347
4234.24,0.610268
4262.754,0.5957115
4291.655,0.614278
4320.948,0.607341
4350.642,0.603093
4380.746,0.6103999
4411.268,0.622424
4442.217,0.633426
4473.602,0.642073
4505.431,0.649179
4537.716,0.653854
4570.465,0.657812
4603.688,0.66236
4637.397,0.664057
4671.601,0.6708954
4706.312,0.679723
4741.541,0.686848
4777.299,0.694048
4813.6,0.701126
4850.455,0.7091192
4887.876,0.718787
4925.878,0.729232
4964.474,0.738762
5003.678,0.7443521
5043.504,0.748884
5083.967,0.754399
5125.083,0.757784
5166.868,0.768198
5209.338,0.78776
5252.51,0.794154
5296.401,0.807438
5341.031,0.817001
5386.417,0.820316
5432.579,0.83163
5479.537,0.855713
5527.312,0.924635
5575.925,0.654292
5625.399,0.771679
5675.757,0.8027373
5727.022,0.820153
5779.22,0.836897
5832.376,0.849426
5886.517,0.865294
5941.67,0.8686802
5997.864,0.868459
6055.129,0.880368
6113.495,0.885742
6172.996,0.891142
6233.663,0.897053
6295.533,0.902941
6358.64,0.915463
6423.023,0.923189
6488.721,0.93031
6555.774,0.933382
6624.224,0.941738
6694.117,0.941086
6765.497,0.946318
6838.413,0.9496268
6912.916,0.950501
6989.057,0.955627
7066.891,0.96027
7146.475,0.965336
7227.869,0.968089
7311.135,0.972791
7396.34,0.976963
7483.55,0.981445
7572.838,0.984256
7664.28,0.985772
7757.953,0.988735
7853.942,0.993159
7952.331,0.997165
8053.214,0.0100152
8156.686,0.0100461
8262.847,0.010082
8371.804,0.0101209
8483.67,0.0101494
8598.562,0.0101686
8716.604,0.010195
8837.928,0.010229
8962.673,0.010261
9090.986,0.0102623
9223.022,0.0102346
9358.945,0.0102305
9498.929,0.0102489
9643.16,0.0102628
9791.834,0.0102687
9945.159,0.0102706
10103.357,0.0102772
10266.663,0.0103025
10435.331,0.0103161
10609.627,0.0103187
10789.839,0.0103176
10976.272,0.0103251
11169.256,0.0103314
11369.141,0.0103134
11576.304,0.0102902
11791.15,0.0102813
12014.114,0.0102854
12245.667,0.010282
12486.313,0.010266
12736.599,0.0102635
12997.116,0.0102824
13268.505,0.0103019
13551.461,0.0103042
13846.739,0.0102725
14155.163,0.0102602
14477.629,0.0102364
14815.121,0.0102112
15168.712,0.010112
15539.583,0.963095
15929.033,0.816244
15965.407,0.795066