File: csv_library/FTIR_LNR_3_8.csv
Database of Origin,University of Winnipeg Spectrophotometer Facility
Sample Description,Lunar samples/ analogues and glasses - D and P 102F FTIR spectra (from PSF) NASA Apollo lunar samples
Other Information,diffuse gold puck 100 spectra averaged
Date Added,2018-07-23 21:03:11.5677

Data ID,FTIR_LNR_3_8
Sample ID,apollo 11 ID# 10084 2008 162
Grain Size,<1mm?
Viewing Geometry,i=30/ e=0
Resolution,3 cm-1
Composition,regolith sample

Wavelength
2.001142,0.157536
2.008155,0.157151
2.015217,0.158461
2.022328,0.159083
2.029488,0.158768
2.036698,0.158469
2.043959,0.159393
2.051271,0.159288
2.058635,0.160143
2.066051,0.161256
2.073519,0.161886
2.081041,0.16186
2.088617,0.1622298
2.096247,0.162557
2.103932,0.16256
2.111673,0.162479
2.119471,0.162405
2.127325,0.163957
2.135237,0.164354
2.143207,0.164941
2.151235,0.165345
2.159324,0.166386
2.167472,0.167711
2.175682,0.169014
2.183952,0.169311
2.192285,0.170101
2.200682,0.171526
2.209141,0.1725452
2.217665,0.173377
2.226254,0.173543
2.23491,0.174574
2.243631,0.176088
2.252421,0.175897
2.261278,0.176775
2.270204,0.177521
2.279201,0.177792
2.288268,0.178599
2.297406,0.178954
2.306617,0.180975
2.315901,0.180295
2.325259,0.181494
2.334692,0.182119
2.344201,0.182218
2.353787,0.183623
2.363451,0.183266
2.373194,0.184699
2.383016,0.185228
2.392919,0.185863
2.402903,0.186235
2.412971,0.186765
2.423122,0.187299
2.433358,0.188101
2.443679,0.189794
2.454088,0.189356
2.464585,0.190259
2.475171,0.190995
2.485847,0.19168
2.496615,0.192878
2.507476,0.193866
2.518431,0.194629
2.52948,0.195774
2.540627,0.197069
2.55187,0.200629
2.563213,0.203637
2.574656,0.20378
2.586201,0.204214
2.597849,0.20241
2.609601,0.205389
2.621459,0.209814
2.633424,0.207482
2.645498,0.208126
2.657682,0.20763
2.669978,0.218772
2.682387,0.208614
2.694911,0.21269
2.707552,0.204973
2.72031,0.205413
2.733188,0.189707
2.746188,0.184771
2.759311,0.181907
2.772559,0.18135
2.785934,0.179637
2.799437,0.178437
2.813071,0.177804
2.826837,0.17868
2.840737,0.177801
2.854774,0.179027
2.868949,0.17922
2.883265,0.178365
2.897723,0.179085
2.912325,0.178401
2.927075,0.178054
2.941973,0.179272
2.957023,0.180966
2.972226,0.179523
2.987586,0.180214
3.003103,0.182708
3.018782,0.182856
3.034624,0.186987
3.050632,0.185845
3.066809,0.188483
3.083157,0.188616
3.099679,0.19062
3.116378,0.19008
3.133257,0.190346
3.150319,0.191429
3.167566,0.19248
3.185001,0.19283
3.202629,0.195057
3.220451,0.198346
3.238472,0.197299
3.256694,0.201844
3.275122,0.199064
3.293757,0.200986
3.312605,0.201995
3.331669,0.205724
3.350952,0.20519
3.370458,0.2040987
3.390191,0.205387
3.410156,0.208159
3.430355,0.211256
3.450794,0.214256
3.471477,0.216946
3.492408,0.222619
3.513592,0.223151
3.535032,0.229391
3.556735,0.230039
3.578704,0.233976
3.600946,0.23828
3.623463,0.24105
3.646263,0.244685
3.669351,0.249232
3.692731,0.254651
3.716409,0.260036
3.740392,0.26634
3.764685,0.272362
3.789294,0.279251
3.814225,0.286984
3.839486,0.293678
3.865081,0.300623
3.891019,0.30807
3.917305,0.316493
3.943948,0.3252178
3.970954,0.336532
3.99833,0.346259
4.026086,0.35542
4.054228,0.366907
4.082764,0.38014
4.111703,0.395544
4.141054,0.411859
4.170826,0.428845
4.201026,0.447136
4.231666,0.470795
4.262754,0.487749
4.294301,0.510009
4.326317,0.530505
4.358811,0.553273
4.391796,0.576023
4.425282,0.601862
4.459281,0.624016
4.493805,0.6433378
4.528865,0.660192
4.564475,0.677222
4.600648,0.695128
4.637397,0.713208
4.674735,0.732948
4.712678,0.755676
4.75124,0.778945
4.790436,0.800173
4.830283,0.816812
4.870795,0.829901
4.911991,0.840482
4.953888,0.85064
4.996504,0.859916
5.039857,0.870097
5.083967,0.880468
5.128854,0.889866
5.174538,0.898461
5.221041,0.909308
5.268386,0.919454
5.316595,0.930275
5.365692,0.942324
5.415701,0.972738
5.46665,0.0110885
5.518564,0.687468
5.57147,0.632949
5.625399,0.733559
5.680379,0.778293
5.736443,0.807957
5.793621,0.828754
5.851948,0.846028
5.911459,0.86437
5.97219,0.875172
6.034179,0.885809
6.097466,0.89001
6.162091,0.896497
6.228099,0.912483
6.295533,0.924653
6.36444,0.92993
6.434869,0.939556
6.506872,0.95158
6.580501,0.959587
6.655812,0.972162
6.732864,0.979321
6.811718,0.984523
6.892437,0.991133
6.975089,0.0100011
7.059743,0.0100762
7.146475,0.010115
7.23536,0.0101958
7.326481,0.0102555
7.419922,0.0103286
7.515774,0.0103945
7.614131,0.0104548
7.715093,0.0105131
7.818764,0.0105756
7.925254,0.0106205
8.034682,0.0107172
8.147169,0.0107944
8.262847,0.0108564
8.381852,0.0108995
8.504331,0.0109579
8.630437,0.0109992
8.760335,0.0110298
8.894198,0.0110445
9.03221,0.0110691
9.174568,0.0110589
9.32148,0.0110812
9.473167,0.0110984
9.629868,0.0111033
9.791834,0.0111153
9.959336,0.0111411
10.1327,0.0111483
10.3121,0.0111402
10.498,0.0111282
10.69079,0.0111152
10.8907,0.0110945
11.0983,0.0110625
11.3139,0.0110208
11.5381,0.0109899
11.77129,0.0109484
12.0141,0.0109018
12.26716,0.0108451
12.5311,0.0108071
12.8066,0.0108228
13.09451,0.0107723
13.3956,0.010707
13.7109,0.0106209
14.0414,0.0105137
14.3882,0.010352
14.7526,0.998529
15.1359,0.907618
15.5396,0.683968
15.9654,0.378474