File: csv_library/FTIR_PYX_07.csv
Database of Origin,University of Winnipeg Spectrophotometer Facility
Sample Description,"HOSERLab master pyroxenes, FTIR data"
Date Added,2016-12-14 03:34:49.7024

Data ID,FTIR_PYX_07
Sample ID,PYX042
Mineral Name,Orthopyroxene
Grain Size,<45 um
Viewing Geometry,"i=30, e=0"
Material Class,Inosilicate

Wavelength
2000.56,0.502902
2006.983,0.5059111
2013.447,0.5100539
2019.952,0.513327
2026.499,0.516848
2033.087,0.520771
2039.718,0.526083
2046.391,0.529607
2053.107,0.534053
2059.867,0.538094
2066.671,0.542625
2073.519,0.54772
2080.412,0.552959
2087.35,0.5578639
2094.334,0.562431
2101.364,0.567023
2108.441,0.573442
2115.565,0.577912
2122.736,0.582799
2129.956,0.588147
2137.224,0.5939147
2144.541,0.598505
2151.907,0.603489
2159.324,0.607922
2166.791,0.613371
2174.309,0.6176346
2181.879,0.62193
2189.501,0.628045
2197.175,0.63256
2204.903,0.637344
2212.685,0.6419774
2220.521,0.645985
2228.412,0.647737
2236.359,0.650867
2244.361,0.654349
2252.421,0.656508
2260.537,0.65962
2268.712,0.659593
2276.945,0.661225
2285.237,0.658707
2293.59,0.659401
2302.002,0.659806
2310.476,0.654263
2319.012,0.660974
2327.61,0.667805
2336.272,0.672914
2344.997,0.67706
2353.787,0.680433
2362.643,0.683422
2371.564,0.682524
2380.553,0.681935
2389.609,0.6832742
2398.733,0.685848
2407.926,0.689859
2417.19,0.690566
2426.524,0.689859
2435.93,0.68938
2445.408,0.689813
2454.959,0.689387
2464.585,0.68957
2474.285,0.690315
2484.062,0.690368
2493.915,0.689578
2503.845,0.689523
2513.855,0.689721
2523.944,0.689784
2534.113,0.689487
2544.364,0.6904287
2554.697,0.690881
2565.113,0.689793
2575.615,0.690016
2586.201,0.689353
2596.874,0.687324
2607.635,0.688056
2618.485,0.687608
2629.424,0.689012
2640.454,0.688678
2651.576,0.686922
2662.792,0.68213
2674.102,0.670256
2685.507,0.631308
2697.01,0.530616
2708.61,0.404092
2720.31,0.328598
2732.111,0.342374
2744.013,0.3461
2756.019,0.345966
2768.129,0.343986
2780.345,0.3447613
2792.669,0.34627
2805.102,0.346738
2817.645,0.349558
2830.299,0.349797
2843.067,0.347153
2855.95,0.346833
2868.949,0.345613
2882.066,0.343883
2895.303,0.341831
2908.661,0.340835
2922.142,0.339751
2935.747,0.339009
2949.479,0.3409
2963.339,0.341928
2977.328,0.346223
2991.45,0.3495046
3005.705,0.353907
3020.096,0.357711
3034.624,0.36446
3049.292,0.367498
3064.101,0.372011
3079.054,0.375766
3094.153,0.380129
3109.399,0.384063
3124.795,0.389306
3140.344,0.396071
3156.047,0.402778
3171.907,0.409499
3187.926,0.4154585
3204.106,0.421776
3220.451,0.428962
3236.963,0.434004
3253.643,0.4404353
3270.495,0.444972
3287.522,0.45012
3304.726,0.4542506
3322.11,0.459082
3339.676,0.462999
3357.429,0.464572
3375.37,0.460527
3393.502,0.463205
3411.83,0.45773
3430.355,0.46629
3449.082,0.478486
3468.013,0.483255
3487.152,0.484662
3506.502,0.485131
3526.067,0.499356
3545.851,0.504727
3565.856,0.508273
3586.088,0.511221
3606.549,0.512146
3627.244,0.514604
3648.176,0.517098
3669.351,0.51828
3690.771,0.519414
3712.442,0.5209
3734.368,0.5229445
3756.553,0.524818
3779.001,0.525909
3801.719,0.527119
3824.71,0.527341
3847.98,0.528726
3871.533,0.530425
3895.375,0.533003
3919.512,0.533549
3943.948,0.533863
3968.689,0.536314
3993.742,0.5386095
4019.111,0.540568
4044.804,0.541676
4070.825,0.544155
4097.183,0.547852
4123.882,0.55232
4150.931,0.556786
4178.335,0.561431
4206.102,0.578082
4234.24,0.619324
4262.754,0.605982
4291.655,0.622459
4320.948,0.615536
4350.642,0.612137
4380.746,0.618432
4411.268,0.63022
4442.217,0.64114
4473.602,0.64901
4505.431,0.65625
4537.716,0.660576
4570.465,0.664361
4603.688,0.668551
4637.397,0.66883
4671.601,0.673688
4706.312,0.682209
4741.541,0.690067
4777.299,0.696387
4813.6,0.700871
4850.455,0.707317
4887.876,0.714988
4925.878,0.725985
4964.474,0.735319
5003.678,0.741416
5043.504,0.745614
5083.967,0.750593
5125.083,0.75233
5166.868,0.7610484
5209.338,0.780893
5252.51,0.788078
5296.401,0.80248
5341.031,0.81328
5386.417,0.815789
5432.579,0.825397
5479.537,0.841495
5527.312,0.866008
5575.925,0.716808
5625.399,0.8188
5675.757,0.831875
5727.022,0.843465
5779.22,0.852476
5832.376,0.859907
5886.517,0.874133
5941.67,0.875374
5997.864,0.872445
6055.129,0.884669
6113.495,0.889312
6172.996,0.892932
6233.663,0.8964036
6295.533,0.900862
6358.64,0.912707
6423.023,0.920865
6488.721,0.928356
6555.774,0.930839
6624.224,0.939366
6694.117,0.937743
6765.497,0.942958
6838.413,0.945846
6912.916,0.947147
6989.057,0.951753
7066.891,0.956253
7146.475,0.961718
7227.869,0.96371
7311.135,0.968085
7396.34,0.972368
7483.55,0.976373
7572.838,0.9791
7664.28,0.980211
7757.953,0.982826
7853.942,0.987074
7952.331,0.99154
8053.214,0.995464
8156.686,0.998345
8262.847,0.010017
8371.804,0.0100548
8483.67,0.0100845
8598.562,0.0101036
8716.604,0.0101275
8837.928,0.0101603
8962.673,0.0101914
9090.986,0.0101899
9223.022,0.0101634
9358.945,0.0101549
9498.929,0.0101761
9643.16,0.0101949
9791.834,0.0102012
9945.159,0.0101985
10103.357,0.0102062
10266.663,0.0102321
10435.331,0.0102461
10609.627,0.0102491
10789.839,0.0102433
10976.272,0.0102484
11169.256,0.0102501
11369.141,0.0102278
11576.304,0.0102064
11791.15,0.0101948
12014.114,0.0101996
12245.667,0.0101936
12486.313,0.0101736
12736.599,0.0101657
12997.116,0.010176
13268.505,0.0102007
13551.461,0.0102026
13846.739,0.0101653
14155.163,0.0101448
14477.629,0.0100999
14815.121,0.0100378
15168.712,0.984895
15539.583,0.905857
15929.033,0.755917
15965.407,0.738928