File: csv_library/FTIR_PLG_07.csv
Database of Origin,University of Winnipeg Spectrophotometer Facility
Sample Description,IR Reflectance spectra of plagioclase with a Bruker Vertex 70 FTIR. See Master Plagioclase in PSF database for additional info.
Date Added,2016-11-22 04:00:06.364986

Data ID,FTIR_PLG_07
Sample ID,PLG115
Mineral Name,Plagioclase
Grain Size,<45 um
Viewing Geometry,"i30, e0"
Resolution,7.71cm-1
Material Class,Tectosilicate

Wavelength
1670.16,0.48153
1676.64,0.48118
1683.18,0.48275
1689.76,0.48063
1696.39,0.48129
1703.08,0.48153
1709.82,0.48137
1716.62,0.48105
1723.46,0.48133
1730.37,0.48079
1737.33,0.48106
1744.34,0.48027
1751.41,0.48006
1758.54,0.47969
1765.73,0.47985
1772.98,0.4802
1780.28,0.47964
1787.65,0.47911
1795.08,0.47927
1802.57,0.48002
1810.12,0.48064
1817.73,0.48258
1825.42,0.48389
1833.16,0.48496
1840.97,0.48733
1848.85,0.48575
1856.8,0.48531
1864.81,0.48312
1872.9,0.48944
1881.05,0.47932
1889.28,0.47824
1897.58,0.4779
1905.95,0.47649
1914.39,0.47268
1922.92,0.47267
1931.51,0.47087
1940.19,0.4708
1948.94,0.47016
1957.77,0.471
1966.68,0.47085
1975.68,0.47135
1984.76,0.47165
1993.92,0.47242
2003.16,0.47249
2012.49,0.47293
2021.91,0.47343
2031.42,0.47372
2041.02,0.47381
2050.7,0.47364
2060.48,0.47428
2070.36,0.47408
2080.33,0.47399
2090.4,0.47414
2100.56,0.47375
2110.82,0.47437
2121.19,0.47399
2131.65,0.47392
2142.22,0.47358
2152.9,0.47364
2163.68,0.47319
2174.57,0.47268
2185.57,0.47192
2196.69,0.47106
2207.91,0.47042
2219.26,0.47017
2230.71,0.46919
2242.29,0.46789
2253.99,0.46811
2265.813,0.46864
2277.76,0.46831
2289.83,0.46766
2302.03,0.46682
2314.37,0.46536
2326.83,0.46521
2339.43,0.46483
2352.17,0.46511
2365.05,0.46501
2378.06,0.46471
2391.23,0.46419
2404.54,0.46352
2417.99,0.46269
2431.6,0.46157
2445.37,0.46067
2459.29,0.45934
2473.37,0.4584
2487.61,0.45747
2502.02,0.45694
2516.59,0.4573
2531.34,0.45978
2546.26,0.46385
2561.35,0.47059
2576.63,0.47583
2592.09,0.4829
2607.74,0.48402
2623.57,0.47695
2639.6,0.46086
2655.83,0.46548
2672.26,0.47815
2688.89,0.4224
2705.73,0.34209
2722.78,0.27678
2740.05,0.2386
2757.54,0.21925
2775.26,0.21452
2793.2,0.21185
2811.38,0.20897
2829.79,0.20573
2848.45,0.20326
2867.36,0.19969
2886.51,0.19738
2905.93,0.19631
2925.61,0.19454
2945.56,0.19556
2965.78,0.19834
2986.28,0.20226
3007.07,0.2066
3028.14,0.21085
3049.52,0.21458
3071.2,0.21772
3093.19,0.22269
3115.49,0.22868
3138.12,0.23593
3161.09,0.24345
3184.39,0.25232
3208.03,0.26147
3232.03,0.27027
3256.39,0.27831
3281.13,0.28715
3306.24,0.29609
3331.74,0.30428
3357.63,0.30966
3383.93,0.31383
3410.64,0.31488
3437.79,0.32852
3465.36,0.34013
3493.38,0.34481
3521.86,0.35877
3550.81,0.36975
3580.23,0.37741
3610.15,0.38383
3640.58,0.38947
3671.52,0.39441
3702.99,0.3987
3735,0.40229
3767.57,0.40512
3800.72,0.40688
3834.45,0.40808
3868.79,0.40808
3903.75,0.4072
3939.35,0.40548
3975.6,0.40392
4012.52,0.40448
4050.14,0.40312
4088.47,0.4005
4127.53,0.39745
4167.35,0.39422
4207.94,0.41297
4249.33,0.42811
4291.54,0.41648
4334.6,0.37774
4378.53,0.36222
4423.36,0.3534
4469.12,0.34271
4515.84,0.32989
4563.54,0.31629
4612.26,0.30209
4662.03,0.28751
4712.89,0.276
4764.87,0.26869
4818.01,0.26291
4872.35,0.25745
4927.93,0.25159
4984.79,0.24131
5042.98,0.22757
5102.54,0.20954
5163.53,0.19305
5225.99,0.17968
5289.98,0.17003
5355.56,0.16124
5422.78,0.14802
5491.72,0.13171
5562.43,0.11969
5634.98,0.1117
5709.45,0.10835
5785.92,0.10409
5864.46,0.10195
5945.16,0.09458
6028.12,0.08778
6113.42,0.08233
6201.17,0.08012
6291.48,0.07975
6384.46,0.0849
6480.23,0.08482
6578.91,0.07891
6680.64,0.06966
6785.58,0.06202
6893.86,0.055
7005.65,0.04962
7121.13,0.04237
7240.48,0.03327
7363.89,0.02476
7491.59,0.01723
7623.79,0.01138
7760.75,0.00789
7902.71,0.00693
8049.97,0.01143
8202.82,0.02876
8361.58,0.04919
8526.61,0.04842
8698.29,0.04607
8877.02,0.0428
9063.25,0.03797
9257.46,0.03609
9460.18,0.0426
9671.98,0.0558
9893.47,0.05797
10125.4,0.05199
10368.4,0.04429
10623.3,0.04152
10891.1,0.04259
11172.8,0.0521
11469.4,0.0587
11782.2,0.06266
12112.6,0.05867
12462,0.02859
12832.1,0.02137
13224.9,0.0221
13642.6,0.02266
14087.4,0.02272
14562.3,0.02214
15070.3,0.01948
15615,0.02805
16200.6,0.0366
16831.8,0.04101
17514.1,0.03774
18254.2,0.03552
19059.5,0.03663
19939.2,0.02686
20904,0.03338
21966.9,0.02782
23143.7,0.03907
24453.7,0.043
25412.6,0.02782