File: csv_library/FTIR_PYX_13.csv
Database of Origin,University of Winnipeg Spectrophotometer Facility
Sample Description,"HOSERLab master pyroxenes, FTIR data"
Date Added,2016-12-14 03:34:49.8963

Data ID,FTIR_PYX_13
Sample ID,PYX112
Mineral Name,Orthopyroxene
Grain Size,<45 um
Viewing Geometry,"i=30, e=0"
Material Class,Inosilicate

Wavelength
2000.56,0.344479
2006.983,0.345742
2013.447,0.347551
2019.952,0.350248
2026.499,0.351628
2033.087,0.353644
2039.718,0.355936
2046.391,0.358306
2053.107,0.36088
2059.867,0.362603
2066.671,0.365554
2073.519,0.369049
2080.412,0.371035
2087.35,0.374255
2094.334,0.3775492
2101.364,0.380001
2108.441,0.382757
2115.565,0.385101
2122.736,0.388891
2129.956,0.392639
2137.224,0.394885
2144.541,0.398811
2151.907,0.4012503
2159.324,0.404957
2166.791,0.408825
2174.309,0.41241
2181.879,0.415322
2189.501,0.419237
2197.175,0.422246
2204.903,0.426168
2212.685,0.429898
2220.521,0.432609
2228.412,0.43512
2236.359,0.436544
2244.361,0.438102
2252.421,0.4412502
2260.537,0.443808
2268.712,0.445731
2276.945,0.44781
2285.237,0.448858
2293.59,0.449467
2302.002,0.450276
2310.476,0.450089
2319.012,0.451699
2327.61,0.455995
2336.272,0.459556
2344.997,0.4629523
2353.787,0.465931
2362.643,0.467959
2371.564,0.468869
2380.553,0.469804
2389.609,0.470947
2398.733,0.4728638
2407.926,0.475114
2417.19,0.477307
2426.524,0.478077
2435.93,0.478911
2445.408,0.479945
2454.959,0.48103
2464.585,0.481995
2474.285,0.482851
2484.062,0.483505
2493.915,0.484197
2503.845,0.485244
2513.855,0.485874
2523.944,0.486902
2534.113,0.487035
2544.364,0.487416
2554.697,0.489118
2565.113,0.489407
2575.615,0.490238
2586.201,0.491297
2596.874,0.491453
2607.635,0.492395
2618.485,0.493642
2629.424,0.495276
2640.454,0.49476
2651.576,0.495958
2662.792,0.495783
2674.102,0.492441
2685.507,0.473404
2697.01,0.441699
2708.61,0.4144042
2720.31,0.322675
2732.111,0.275842
2744.013,0.259399
2756.019,0.2553957
2768.129,0.24923
2780.345,0.247711
2792.669,0.246106
2805.102,0.241948
2817.645,0.244307
2830.299,0.245487
2843.067,0.243757
2855.95,0.243269
2868.949,0.243019
2882.066,0.242266
2895.303,0.240601
2908.661,0.239123
2922.142,0.239937
2935.747,0.240074
2949.479,0.244077
2963.339,0.245936
2977.328,0.252252
2991.45,0.256524
3005.705,0.261148
3020.096,0.265505
3034.624,0.273773
3049.292,0.277214
3064.101,0.282197
3079.054,0.28577
3094.153,0.290265
3109.399,0.294345
3124.795,0.300043
3140.344,0.306355
3156.047,0.313634
3171.907,0.320309
3187.926,0.326376
3204.106,0.332438
3220.451,0.339691
3236.963,0.343263
3253.643,0.350274
3270.495,0.353828
3287.522,0.357765
3304.726,0.361875
3322.11,0.36626
3339.676,0.3696704
3357.429,0.372051
3375.37,0.37465
3393.502,0.3777535
3411.83,0.380193
3430.355,0.384564
3449.082,0.390311
3468.013,0.391931
3487.152,0.394502
3506.502,0.397204
3526.067,0.400664
3545.851,0.404008
3565.856,0.406307
3586.088,0.409302
3606.549,0.409959
3627.244,0.41222
3648.176,0.413604
3669.351,0.415179
3690.771,0.416694
3712.442,0.417745
3734.368,0.420486
3756.553,0.423173
3779.001,0.424494
3801.719,0.425372
3824.71,0.426861
3847.98,0.429016
3871.533,0.431432
3895.375,0.433871
3919.512,0.435478
3943.948,0.438098
3968.689,0.441479
3993.742,0.445479
4019.111,0.449498
4044.804,0.45256
4070.825,0.457164
4097.183,0.463466
4123.882,0.470069
4150.931,0.477073
4178.335,0.4847648
4206.102,0.508326
4234.24,0.5666017
4262.754,0.548469
4291.655,0.570901
4320.948,0.561015
4350.642,0.555262
4380.746,0.56334
4411.268,0.5783405
4442.217,0.591633
4473.602,0.6018176
4505.431,0.610641
4537.716,0.619112
4570.465,0.627602
4603.688,0.638089
4637.397,0.646049
4671.601,0.655301
4706.312,0.665005
4741.541,0.674948
4777.299,0.686654
4813.6,0.6962927
4850.455,0.702565
4887.876,0.709937
4925.878,0.7192842
4964.474,0.728352
5003.678,0.735393
5043.504,0.74331
5083.967,0.751545
5125.083,0.756691
5166.868,0.764338
5209.338,0.7800133
5252.51,0.785981
5296.401,0.799711
5341.031,0.810902
5386.417,0.814816
5432.579,0.826485
5479.537,0.843905
5527.312,0.876683
5575.925,0.652191
5625.399,0.80076
5675.757,0.8212065
5727.022,0.839456
5779.22,0.855125
5832.376,0.870124
5886.517,0.8873153
5941.67,0.890265
5997.864,0.889863
6055.129,0.903035
6113.495,0.908072
6172.996,0.912309
6233.663,0.91538
6295.533,0.919641
6358.64,0.930002
6423.023,0.936077
6488.721,0.943055
6555.774,0.945759
6624.224,0.953829
6694.117,0.953899
6765.497,0.958925
6838.413,0.961937
6912.916,0.9642654
6989.057,0.968868
7066.891,0.973204
7146.475,0.977981
7227.869,0.980661
7311.135,0.984548
7396.34,0.9888174
7483.55,0.993004
7572.838,0.995644
7664.28,0.996987
7757.953,0.999617
7853.942,0.0100405
7952.331,0.0100836
8053.214,0.0101274
8156.686,0.0101597
8262.847,0.010199
8371.804,0.0102402
8483.67,0.0102698
8598.562,0.0102919
8716.604,0.0103138
8837.928,0.01034836
8962.673,0.0103804
9090.986,0.0103792
9223.022,0.0103533
9358.945,0.0103457
9498.929,0.0103599
9643.16,0.010369
9791.834,0.0103749
9945.159,0.0103755
10103.357,0.0103805
10266.663,0.010401
10435.331,0.0104135
10609.627,0.0104134
10789.839,0.01041393
10976.272,0.0104202
11169.256,0.0104235
11369.141,0.0104078
11576.304,0.0103838
11791.15,0.0103736
12014.114,0.0103774
12245.667,0.01037407
12486.313,0.0103594
12736.599,0.0103545
12997.116,0.0103657
13268.505,0.0103801
13551.461,0.0103745
13846.739,0.0103415
14155.163,0.0103232
14477.629,0.0103043
14815.121,0.0102749
15168.712,0.0101779
15539.583,0.962111
15929.033,0.805966
15965.407,0.780348