File: csv_library/FTIR_CLAY_01.csv
Database of Origin,University of Winnipeg Spectrophotometer Facility
Sample Description,See Master Clays in HOSERLab database
Date Added,2016-12-11 20:56:55.086

Data ID,FTIR_CLAY_01
Sample ID,BEI101
Mineral Name,Beidellite
Grain Size,<45 m
Viewing Geometry,35/0
Resolution,11-72 nm
Material Class,Phyllosilicate

Wavelength
2001.142,0.379537
2008.155,0.385746
2015.217,0.3909764
2022.328,0.396428
2029.488,0.400546
2036.698,0.405892
2043.959,0.409534
2051.271,0.412258
2058.635,0.415898
2066.051,0.4185943
2073.519,0.420541
2081.041,0.421955
2088.617,0.423872
2096.247,0.424968
2103.932,0.427645
2111.673,0.4300347
2119.471,0.432765
2127.325,0.433061
2135.237,0.433109
2143.207,0.431065
2151.235,0.426233
2159.324,0.418032
2167.472,0.411713
2175.682,0.403954
2183.952,0.394993
2192.285,0.386428
2200.682,0.377924
2209.141,0.371789
2217.665,0.385352
2226.254,0.3909091
2234.91,0.394607
2243.631,0.3979637
2252.421,0.401537
2261.278,0.404802
2270.204,0.406032
2279.201,0.40399
2288.268,0.400658
2297.406,0.396432
2306.617,0.392015
2315.901,0.384853
2325.259,0.37693
2334.692,0.36924
2344.201,0.362839
2353.787,0.357036
2363.451,0.352091
2373.194,0.345959
2383.016,0.340437
2392.919,0.336877
2402.903,0.332795
2412.971,0.325614
2423.122,0.318004
2433.358,0.3090445
2443.679,0.301877
2454.088,0.29686
2464.585,0.291353
2475.171,0.286285
2485.847,0.280361
2496.615,0.276004
2507.476,0.272516
2518.431,0.270216
2529.48,0.268823
2540.627,0.268386
2551.87,0.269971
2563.213,0.273612
2574.656,0.269966
2586.201,0.268642
2597.849,0.263554
2609.601,0.25958
2621.459,0.255077
2633.424,0.246881
2645.498,0.234754
2657.682,0.221199
2669.978,0.215114
2682.387,0.173316
2694.911,0.122398
2707.552,0.08747208
2720.31,0.09513581
2733.188,0.05253893
2746.188,0.03217721
2759.311,0.02739746
2772.559,0.02683794
2785.934,0.02588606
2799.437,0.02456904
2813.071,0.02391534
2826.837,0.02362116
2840.737,0.02244598
2854.774,0.02226748
2868.949,0.02081382
2883.265,0.01993297
2897.723,0.01930584
2912.325,0.01871738
2927.075,0.01885472
2941.973,0.01890441
2957.023,0.01921075
2972.226,0.01914585
2987.586,0.01921587
3003.103,0.01971547
3018.782,0.02019705
3034.624,0.02196124
3050.632,0.02122759
3066.809,0.02274893
3083.157,0.02274724
3099.679,0.02407977
3116.378,0.02441966
3133.257,0.02559617
3150.319,0.02765512
3167.566,0.03028146
3185.001,0.03458795
3202.629,0.03787449
3220.451,0.04478636
3238.472,0.04776507
3256.694,0.05641085
3275.122,0.05991779
3293.757,0.06790107
3312.605,0.07420143
3331.669,0.08464721
3350.952,0.09189482
3370.458,0.09970839
3390.191,0.108648
3410.156,0.119511
3430.355,0.130213
3450.794,0.143083
3471.477,0.154574
3492.408,0.167037
3513.592,0.1766632
3535.032,0.191959
3556.735,0.2026425
3578.704,0.214862
3600.946,0.225956
3623.463,0.235884
3646.263,0.245611
3669.351,0.254923
3692.731,0.264656
3716.409,0.274332
3740.392,0.282639
3764.685,0.290886
3789.294,0.297891
3814.225,0.304149
3839.486,0.309026
3865.081,0.313105
3891.019,0.317054
3917.305,0.319962
3943.948,0.3217971
3970.954,0.323592
3998.33,0.324638
4026.086,0.325059
4054.228,0.325708
4082.764,0.326659
4111.703,0.329258
4141.054,0.332653
4170.826,0.336644
4201.026,0.351299
4231.666,0.438568
4262.754,0.401981
4294.301,0.424932
4326.317,0.3962741
4358.811,0.382381
4391.796,0.38701
4425.282,0.39578
4459.281,0.403402
4493.805,0.410554
4528.865,0.4179794
4564.475,0.425541
4600.648,0.433801
4637.397,0.4427996
4674.735,0.451717
4712.678,0.462679
4751.24,0.473281
4790.436,0.485442
4830.283,0.49363
4870.795,0.5031062
4911.991,0.510942
4953.888,0.521412
4996.504,0.52528
5039.857,0.533242
5083.967,0.546465
5128.854,0.551094
5174.538,0.559779
5221.041,0.573325
5268.386,0.5749309
5316.595,0.57969
5365.692,0.591755
5415.701,0.624711
5466.65,0.654972
5518.564,0.705138
5571.47,0.593682
5625.399,0.494753
5680.379,0.552496
5736.443,0.579363
5793.621,0.582274
5851.948,0.606359
5911.459,0.614151
5972.19,0.642531
6034.179,0.649414
6097.466,0.653659
6162.091,0.6644483
6228.099,0.66637
6295.533,0.675412
6364.44,0.705334
6434.869,0.71806
6506.872,0.735417
6580.501,0.759131
6655.812,0.740633
6732.864,0.738679
6811.718,0.748406
6892.437,0.7505093
6975.089,0.756843
7059.743,0.7622928
7146.475,0.77883
7235.36,0.7735
7326.481,0.789141
7419.922,0.785747
7515.774,0.792058
7614.131,0.800112
7715.093,0.804095
7818.764,0.808112
7925.254,0.814901
8034.682,0.820379
8147.169,0.8256601
8262.847,0.828342
8381.852,0.831469
8504.331,0.833954
8630.437,0.836485
8760.335,0.8395
8894.198,0.842538
9032.21,0.844521
9174.568,0.845869
9321.48,0.847877
9473.167,0.850995
9629.868,0.853034
9791.834,0.856315
9959.336,0.859286
10132.662,0.861601
10312.121,0.864322
10498.045,0.866624
10690.79,0.867968
10890.738,0.867128
11098.301,0.865454
11313.921,0.865927
11538.079,0.869383
11771.29,0.870831
12014.114,0.87213
12267.16,0.871224
12531.086,0.872954
12806.608,0.873058
13094.51,0.873184
13395.644,0.87301
13710.943,0.87369
14041.433,0.870893
14388.237,0.860695
14752.594,0.835112
15135.871,0.763416
15539.583,0.570634
15965.407,0.35514